TimeStamp,Delta_TP9,Delta_AF7,Delta_AF8,Delta_TP10,Theta_TP9,Theta_AF7,Theta_AF8,Theta_TP10,Alpha_TP9,Alpha_AF7,Alpha_AF8,Alpha_TP10,Beta_TP9,Beta_AF7,Beta_AF8,Beta_TP10,Gamma_TP9,Gamma_AF7,Gamma_AF8,Gamma_TP10,RAW_TP9,RAW_AF7,RAW_AF8,RAW_TP10,AUX_RIGHT,Accelerometer_X,Accelerometer_Y,Accelerometer_Z,Gyro_X,Gyro_Y,Gyro_Z,HeadBandOn,HSI_TP9,HSI_AF7,HSI_AF8,HSI_TP10,Battery,Elements
2024-03-04 10:07:58.447,,,,,,,,,,,,,,,,,,,,,,,,,,,,,,,,,,,,,,/muse/event/connected Muse-99D3
2024-03-04 10:07:58.511,0.6856598,0.77271897,0.0,1.0602473,0.7201708,0.69061476,0.0,0.8912931,1.1959226,0.50347346,0.0,1.0317243,0.7220422,0.09016317,0.0,0.97556275,0.9103629,-0.29995224,0.0,0.5796268,903.36993,907.3993,446.84982,909.81683,1006.9231,0.15576171875,-0.06634521484375,0.994140625,2.564544677734375,-5.884246826171875,1.51031494140625,1,2.0,1.0,4.0,2.0,40.00
2024-03-04 10:07:58.546,,,,,,,,,,,,,,,,,,,,,,,,,,,,,,,,,,,,,,/muse/elements/blink
2024-03-04 10:07:59.513,0.6856598,0.77271897,0.0,1.2297214,0.7201708,0.69061476,0.0,1.1110371,1.1959226,0.50347346,0.0,1.1225567,0.7220422,0.09016317,0.0,1.0383172,0.9103629,-0.29995224,0.0,1.0426184,904.57874,854.61536,766.3736,927.1429,919.4872,0.16070556640625,-0.05181884765625,0.990966796875,1.51031494140625,-4.68048095703125,-1.099090576171875,1,1.0,1.0,1.0,1.0,40.00
2024-03-04 10:07:59.813,,,,,,,,,,,,,,,,,,,,,,,,,,,,,,,,,,,,,,/muse/elements/blink
2024-03-04 10:08:00.514,0.6856598,1.4224386,0.0,1.1851592,0.7201708,1.1411091,0.0,1.2321478,1.1959226,0.8468994,0.0,1.1225567,0.7220422,0.28993073,0.0,0.985617,0.9103629,-0.07510616,0.0,1.1349778,754.2857,842.52747,780.07324,802.23444,586.6667,0.1650390625,-0.057373046875,0.98883056640625,2.093505859375,-3.611297607421875,-1.592559814453125,1,1.0,1.0,1.0,1.0,40.00
2024-03-04 10:08:01.156,,,,,,,,,,,,,,,,,,,,,,,,,,,,,,,,,,,,,,/muse/elements/blink
2024-03-04 10:08:01.521,0.6856598,1.190051,0.0,1.1851592,0.7201708,0.7363026,0.0,1.2321478,1.1959226,0.8871774,0.0,1.1225567,0.7220422,0.24742334,0.0,0.985617,0.9103629,-0.050816283,0.0,1.1349778,727.28937,873.95605,1379.2307,723.2601,665.64105,0.16192626953125,-0.0625,0.99200439453125,1.966400146484375,-3.386993408203125,-1.7645263671875,1,1.0,1.0,1.0,1.0,40.00
2024-03-04 10:08:02.524,,,,,,,,,,,,,,,,,,,,,,,,,,,,,,,,,,,,,,/muse/elements/blink
2024-03-04 10:08:02.531,1.028415,0.77831024,0.0,1.0561119,0.7163771,0.966312,0.0,0.8466665,0.9390597,1.1849691,0.0,0.8177924,0.70493823,0.5487621,0.0,0.9904571,0.45174965,0.036576293,0.0,0.51438785,871.53845,850.989,830.0366,855.42126,889.67035,0.164306640625,-0.06549072265625,0.99017333984375,1.981353759765625,-4.3365478515625,-1.652374267578125,1,1.0,1.0,1.0,1.0,40.00
2024-03-04 10:08:03.325,,,,,,,,,,,,,,,,,,,,,,,,,,,,,,,,,,,,,,/muse/elements/blink
2024-03-04 10:08:03.548,1.2757623,1.0758426,0.0,1.1036918,0.909663,1.3098643,0.0,0.8883474,0.87104917,1.1849691,0.0,0.8131072,0.71832156,0.77642244,0.0,1.021288,0.37267715,0.021503286,0.0,0.5394108,852.1978,846.9597,801.4286,819.15753,772.4176,0.15618896484375,-0.05364990234375,0.99542236328125,11.065673828125,-0.171966552734375,1.8841552734375,1,1.0,1.0,4.0,1.0,40.00
2024-03-04 10:08:03.842,,,,,,,,,,,,,,,,,,,,,,,,,,,,,,,,,,,,,,/muse/elements/blink
2024-03-04 10:08:04.567,1.359522,1.0758426,0.0,1.1036918,0.95344526,1.3098643,0.0,0.8883474,0.85386646,1.1849691,0.0,0.8131072,0.7189841,0.77642244,0.0,1.021288,0.3512913,0.021503286,0.0,0.5394108,994.83514,838.0952,110.40293,940.4396,916.26373,0.0992431640625,0.0296630859375,0.98785400390625,4.6356201171875,-24.127655029296875,-11.237640380859375,1,1.0,1.0,2.0,1.0,40.00
2024-03-04 10:08:05.042,,,,,,,,,,,,,,,,,,,,,,,,,,,,,,,,,,,,,,/muse/elements/blink
2024-03-04 10:08:05.582,1.359522,1.0758426,0.0,1.1036918,0.95344526,1.3098643,0.0,0.8883474,0.85386646,1.1849691,0.0,0.8131072,0.7189841,0.77642244,0.0,1.021288,0.3512913,0.021503286,0.0,0.5394108,759.12085,858.24176,444.83517,794.9817,491.97803,0.14306640625,-0.012939453125,1.00665283203125,0.755157470703125,-7.768402099609375,1.5252685546875,1,2.0,1.0,2.0,2.0,40.00
2024-03-04 10:08:06.285,,,,,,,,,,,,,,,,,,,,,,,,,,,,,,,,,,,,,,/muse/elements/blink
2024-03-04 10:08:06.587,0.85997754,1.0758426,0.0,1.1036918,0.6646853,1.3098643,0.0,0.8883474,1.134524,1.1849691,0.0,0.8131072,0.9172915,0.77642244,0.0,1.021288,0.38674104,0.021503286,0.0,0.5394108,896.1172,840.9158,635.42126,880.0,1105.238,0.13592529296875,-0.01507568359375,0.99371337890625,3.476715087890625,-3.267364501953125,-0.7476806640625,1,1.0,1.0,2.0,1.0,40.00
2024-03-04 10:08:07.599,,,,,,,,,,,,,,,,,,,,,,,,,,,,,,,,,,,,,,/muse/elements/blink
2024-03-04 10:08:07.614,0.83104694,1.0758426,0.0,1.0778015,0.85214317,1.3098643,0.0,1.09376,1.0816951,1.1849691,0.0,1.0726907,0.84506196,0.77642244,0.0,0.9479929,0.43246883,0.021503286,0.0,0.50055593,750.65936,815.5311,798.60803,772.4176,639.85345,0.1329345703125,-0.0146484375,1.0001220703125,1.0467529296875,-4.0972900390625,-1.36077880859375,1,1.0,1.0,2.0,1.0,40.00
2024-03-04 10:08:08.628,0.6106127,1.0758426,0.0,0.6692043,0.8495158,1.3098643,0.0,0.8102732,0.72218376,1.1849691,0.0,1.0145522,0.8335602,0.77642244,0.0,0.7587067,0.4908847,0.021503286,0.0,0.47476998,975.09155,835.6777,936.8132,915.8608,1032.3077,0.1201171875,-0.01934814453125,0.99053955078125,1.398162841796875,-3.349609375,-4.254302978515625,1,1.0,1.0,2.0,1.0,40.00
2024-03-04 10:08:08.807,,,,,,,,,,,,,,,,,,,,,,,,,,,,,,,,,,,,,,/muse/elements/blink
2024-03-04 10:08:09.305,,,,,,,,,,,,,,,,,,,,,,,,,,,,,,,,,,,,,,/muse/elements/blink
2024-03-04 10:08:09.636,0.6106127,1.0758426,0.0,0.6692043,0.8495158,1.3098643,0.0,0.8102732,0.72218376,1.1849691,0.0,1.0145522,0.8335602,0.77642244,0.0,0.7587067,0.4908847,0.021503286,0.0,0.47476998,730.10986,832.0513,610.4396,757.50916,697.8755,0.1314697265625,-0.02117919921875,0.99798583984375,1.8243408203125,-3.985137939453125,-1.15142822265625,1,1.0,1.0,2.0,1.0,40.00
2024-03-04 10:08:10.105,,,,,,,,,,,,,,,,,,,,,,,,,,,,,,,,,,,,,,/muse/elements/blink
2024-03-04 10:08:10.655,0.6106127,1.0758426,0.0,0.6692043,0.8495158,1.3098643,0.0,0.8102732,0.72218376,1.1849691,0.0,1.0145522,0.8335602,0.77642244,0.0,0.7587067,0.4908847,0.021503286,0.0,0.47476998,836.8865,849.3773,846.9597,826.4103,671.685,0.135498046875,-0.01678466796875,0.99700927734375,1.60003662109375,-4.2767333984375,-1.353302001953125,1,2.0,1.0,2.0,2.0,40.00
2024-03-04 10:08:11.436,,,,,,,,,,,,,,,,,,,,,,,,,,,,,,,,,,,,,,/muse/elements/blink
2024-03-04 10:08:11.665,1.3562603,0.62397873,0.0,1.2387797,1.2133392,0.49177203,0.0,0.84011877,1.0335778,0.62503445,0.0,0.8363414,0.9180035,0.36714292,0.0,0.6472478,0.59359604,0.09527466,0.0,0.2423302,774.43225,815.5311,896.52014,789.7436,583.44324,0.1361083984375,-0.02490234375,0.99505615234375,1.39068603515625,-4.5159912109375,-1.62994384765625,1,1.0,1.0,2.0,1.0,40.00
2024-03-04 10:08:12.634,,,,,,,,,,,,,,,,,,,,,,,,,,,,,,,,,,,,,,/muse/elements/blink
2024-03-04 10:08:12.677,0.6787994,0.95250714,0.0,0.61483586,0.36003417,0.6203935,0.0,0.63809484,0.8842445,0.6788702,0.0,0.8353747,0.5619538,0.2623631,0.0,0.36721697,0.45121175,-0.048110485,0.0,0.2618686,941.2454,837.6923,915.4579,889.2674,900.9524,0.14312744140625,-0.0238037109375,0.9954833984375,1.128997802734375,-3.850555419921875,-1.54022216796875,1,1.0,1.0,2.0,1.0,40.00
2024-03-04 10:08:13.357,,,,,,,,,,,,,,,,,,,,,,,,,,,,,,,,,,,,,,/muse/elements/blink
2024-03-04 10:08:13.690,0.77729696,1.2570869,0.0,0.8328489,0.23393172,0.9709906,0.0,0.7381639,0.75845134,0.6788702,0.0,0.6308439,0.67774457,0.269096,0.0,0.46249792,0.46094304,-0.121074446,0.0,0.2820025,850.989,783.69965,821.978,866.7033,921.0989,0.1427001953125,-0.0213623046875,0.996826171875,1.89910888671875,-3.828125,-1.00189208984375,1,1.0,1.0,2.0,1.0,40.00
2024-03-04 10:08:13.871,,,,,,,,,,,,,,,,,,,,,,,,,,,,,,,,,,,,,,/muse/elements/blink
2024-03-04 10:08:14.699,0.8136495,1.2570869,0.0,0.867989,-0.006930543,0.9709906,0.0,0.5496718,0.56523687,0.6788702,0.0,0.4635793,0.7289956,0.269096,0.0,0.56581634,0.45111486,-0.121074446,0.0,0.1323549,743.8095,837.28937,882.01465,768.3883,671.685,0.1361083984375,-0.02880859375,0.9962158203125,2.093505859375,-4.02252197265625,-1.158905029296875,1,1.0,1.0,2.0,1.0,40.00
2024-03-04 10:08:14.989,,,,,,,,,,,,,,,,,,,,,,,,,,,,,,,,,,,,,,/muse/elements/blink
2024-03-04 10:08:15.305,,,,,,,,,,,,,,,,,,,,,,,,,,,,,,,,,,,,,,/muse/elements/blink
2024-03-04 10:08:15.708,0.8136495,1.2570869,0.0,0.867989,-0.006930543,0.9709906,0.0,0.5496718,0.56523687,0.6788702,0.0,0.4635793,0.7289956,0.269096,0.0,0.56581634,0.45111486,-0.121074446,0.0,0.1323549,971.8681,821.5751,663.6264,923.5165,1257.9487,0.1363525390625,-0.0294189453125,0.998779296875,2.093505859375,-4.344024658203125,-1.398162841796875,1,1.0,1.0,2.0,1.0,40.00
2024-03-04 10:08:16.530,,,,,,,,,,,,,,,,,,,,,,,,,,,,,,,,,,,,,,/muse/elements/blink
2024-03-04 10:08:16.715,0.8136495,1.2453454,0.0,1.1186384,-0.006930543,0.63757193,0.0,0.6599224,0.56523687,0.5179501,0.0,0.6831933,0.7289956,0.1308396,0.0,0.620819,0.45111486,-0.063034244,0.0,0.3706679,720.0366,817.5458,689.81683,743.8095,572.1612,0.13848876953125,-0.025390625,0.99578857421875,1.592559814453125,-3.72344970703125,-1.353302001953125,1,2.0,1.0,2.0,2.0,40.00
2024-03-04 10:08:17.729,0.83441955,1.0050657,0.0,0.8453683,0.73048973,0.5360697,0.0,0.64011943,0.83844924,0.66918445,0.0,0.8497229,0.6403283,0.28198102,0.0,0.69567275,0.31455413,-0.13820468,0.0,0.27371702,868.315,814.7253,787.72894,851.39197,783.69965,0.1431884765625,-0.028076171875,0.99761962890625,1.55517578125,-4.000091552734375,-1.256103515625,1,1.0,1.0,2.0,1.0,40.00
2024-03-04 10:08:17.747,,,,,,,,,,,,,,,,,,,,,,,,,,,,,,,,,,,,,,/muse/elements/blink
2024-03-04 10:08:18.744,0.7733341,1.0047239,0.0,0.77149653,0.53356457,0.79068696,0.0,0.35384786,0.73246473,0.68288636,0.0,0.76361126,0.72957605,0.51671857,0.0,0.6310786,0.46636903,-0.045528222,0.0,0.11699689,768.7912,840.10986,680.54944,789.34064,756.7033,0.12847900390625,-0.04437255859375,0.99481201171875,0.59814453125,-3.03558349609375,-2.093505859375,1,1.0,1.0,2.0,1.0,40.00
2024-03-04 10:08:19.048,,,,,,,,,,,,,,,,,,,,,,,,,,,,,,,,,,,,,,/muse/elements/blink
2024-03-04 10:08:19.747,0.6577026,1.0058597,0.0,0.7785604,0.5696734,0.7606521,0.0,0.5612336,0.6002198,0.6673128,0.0,0.59425145,0.6516643,0.5368764,0.0,0.42028478,0.51375157,0.07440579,0.0,0.33067855,711.5751,836.08057,596.7399,729.707,554.0293,0.13555908203125,-0.0185546875,1.00469970703125,1.981353759765625,-3.87298583984375,-1.727142333984375,1,1.0,1.0,2.0,1.0,40.00
2024-03-04 10:08:20.178,,,,,,,,,,,,,,,,,,,,,,,,,,,,,,,,,,,,,,/muse/elements/blink
2024-03-04 10:08:20.366,,,,,,,,,,,,,,,,,,,,,,,,,,,,,,,,,,,,,,/muse/elements/blink
2024-03-04 10:08:20.752,0.60360473,0.46664461,0.0,0.82291734,0.56757146,0.36951426,0.0,0.63025707,0.54806435,0.47116372,0.0,0.33340573,0.5367238,0.5033916,0.0,0.424858,0.39455056,0.010983793,0.0,0.3525049,850.18317,830.0366,992.4176,835.2747,706.337,0.1329345703125,-0.03338623046875,0.99609375,1.1065673828125,-3.81317138671875,0.007476806640625,1,1.0,1.0,2.0,1.0,40.00
2024-03-04 10:08:21.676,,,,,,,,,,,,,,,,,,,,,,,,,,,,,,,,,,,,,,/muse/elements/blink
2024-03-04 10:08:21.779,1.0482339,0.91495955,0.0,1.0198998,0.7599209,0.7425116,0.0,0.9738725,0.6799178,0.7978785,0.0,0.81928617,0.87726796,0.38646364,0.0,0.6253188,0.7560633,0.16027081,0.0,0.55056435,708.7546,841.31866,542.3443,722.0513,811.9048,0.1268310546875,-0.039306640625,0.997314453125,1.62994384765625,-3.536529541015625,-1.68975830078125,1,1.0,1.0,2.0,1.0,40.00
2024-03-04 10:08:22.000,,,,,,,,,,,,,,,,,,,,,,,,,,,,,,,,,,,,,,/muse/elements/blink
2024-03-04 10:08:22.782,1.1991091,0.92807984,0.0,1.2698408,0.9722606,0.7840067,0.0,0.99881834,1.1438453,0.8014261,0.0,1.279658,0.8682015,0.4930405,0.0,0.6647612,0.54680127,0.16093096,0.0,0.40286398,950.5128,823.1868,642.674,915.05493,1258.7546,0.127197265625,-0.0418701171875,0.9974365234375,2.01873779296875,-4.015045166015625,-1.55517578125,1,1.0,1.0,2.0,1.0,40.00
2024-03-04 10:08:22.787,,,,,,,,,,,,,,,,,,,,,,,,,,,,,,,,,,,,,,/muse/elements/blink
2024-03-04 10:08:23.793,1.0858426,0.8579624,0.0,1.1546276,0.948456,0.18904288,0.0,0.8920991,1.1365609,0.6088322,0.0,1.2539591,0.71948797,0.47332487,0.0,0.6316109,0.4304925,0.14109702,0.0,0.42593703,716.0073,842.52747,622.9304,727.28937,579.011,0.13134765625,-0.03131103515625,0.99822998046875,2.160797119140625,-4.38140869140625,-1.016845703125,1,1.0,1.0,2.0,1.0,40.00
2024-03-04 10:08:24.125,,,,,,,,,,,,,,,,,,,,,,,,,,,,,,,,,,,,,,/muse/elements/blink
2024-03-04 10:08:24.806,1.1951852,0.8971816,0.0,0.9513223,0.7551857,0.21063995,0.0,0.7516857,0.8761757,0.598555,0.0,0.8248344,0.69428986,0.4996703,0.0,0.59168357,0.45292124,0.10776391,0.0,0.42881122,855.42126,833.663,834.4689,830.4396,740.18317,0.12872314453125,-0.03997802734375,0.998291015625,1.8243408203125,-3.551483154296875,-1.016845703125,1,1.0,1.0,2.0,1.0,40.00
2024-03-04 10:08:25.429,,,,,,,,,,,,,,,,,,,,,,,,,,,,,,,,,,,,,,/muse/elements/blink
2024-03-04 10:08:25.828,1.1040244,0.9718829,0.0,0.8991329,0.68731815,0.56015897,0.0,0.6350037,0.7900614,0.6099353,0.0,0.86710775,0.681781,0.6042519,0.0,0.6507284,0.41615298,0.14177333,0.0,0.40501413,766.77655,828.022,833.663,775.64105,644.2857,0.12969970703125,-0.038818359375,0.99468994140625,2.056121826171875,-4.074859619140625,-1.502838134765625,1,1.0,1.0,2.0,1.0,40.00
2024-03-04 10:08:26.668,,,,,,,,,,,,,,,,,,,,,,,,,,,,,,,,,,,,,,/muse/elements/blink
2024-03-04 10:08:26.837,1.2002419,0.9718829,0.0,1.0068692,0.83282715,0.56015897,0.0,0.6829208,0.7900614,0.6099353,0.0,0.8228799,0.72988224,0.6042519,0.0,0.6354467,0.37641054,0.14177333,0.0,0.24773026,913.44324,815.9341,956.55676,894.10254,900.9524,0.13409423828125,-0.0322265625,0.99676513671875,1.712188720703125,-3.970184326171875,-1.652374267578125,1,1.0,1.0,2.0,1.0,40.00
2024-03-04 10:08:27.860,0.74867797,0.6621818,0.0,0.86964685,0.6731823,0.8039639,0.0,0.56223464,0.76115763,0.7954625,0.0,0.63658607,0.7368687,0.44831672,0.0,0.6254634,0.43018404,0.2735068,0.0,0.44330877,825.6044,819.5604,846.1539,877.1795,907.8022,0.13165283203125,-0.03662109375,0.9947509765625,1.667327880859375,-3.72344970703125,-1.637420654296875,1,1.0,1.0,2.0,1.0,40.00
2024-03-04 10:08:27.971,,,,,,,,,,,,,,,,,,,,,,,,,,,,,,,,,,,,,,/muse/elements/blink
2024-03-04 10:08:28.889,0.95816064,0.62040204,0.0,1.2656497,0.72421116,0.6786607,0.0,0.37279388,0.74797386,0.7365386,0.0,0.8796718,0.75467545,0.29304072,0.0,0.67879814,0.57834846,0.35614118,0.0,0.58533883,840.9158,960.58606,731.7216,833.663,997.25275,0.1280517578125,-0.040283203125,0.99530029296875,1.74957275390625,-4.5159912109375,-0.82244873046875,1,1.0,1.0,2.0,1.0,40.00
2024-03-04 10:08:29.329,,,,,,,,,,,,,,,,,,,,,,,,,,,,,,,,,,,,,,/muse/elements/blink
2024-03-04 10:08:29.895,0.84446216,0.7223321,0.0,1.5630203,0.46043456,0.53669,0.0,0.543986,0.61794746,0.68503565,0.0,0.86632955,0.53793234,0.2629836,0.0,0.7706274,0.6324012,0.32646105,0.0,0.55592906,750.65936,893.69965,616.08057,758.315,691.4286,0.12811279296875,-0.03887939453125,0.99786376953125,1.487884521484375,-3.78326416015625,-1.428070068359375,1,1.0,1.0,2.0,1.0,40.00
2024-03-04 10:08:30.319,,,,,,,,,,,,,,,,,,,,,,,,,,,,,,,,,,,,,,/muse/elements/blink
2024-03-04 10:08:30.900,1.0837184,0.7223321,0.0,1.0885408,0.38865113,0.53669,0.0,0.44517457,0.8157234,0.68503565,0.0,0.6747898,0.6555194,0.2629836,0.0,0.5443321,0.5534495,0.32646105,0.0,0.3399384,779.67035,846.9597,735.7509,799.011,572.5641,0.13604736328125,-0.034912109375,0.996337890625,1.27105712890625,-3.910369873046875,-1.45050048828125,1,1.0,1.0,2.0,1.0,40.00
2024-03-04 10:08:31.535,,,,,,,,,,,,,,,,,,,,,,,,,,,,,,,,,,,,,,/muse/elements/blink
2024-03-04 10:08:31.914,1.0109113,1.2101706,0.0,1.1005977,0.5652704,1.1204051,0.0,0.38533223,1.0061083,1.1574131,0.0,0.8107916,0.78560024,0.7735104,0.0,0.68667984,0.46907339,0.06283133,0.0,0.42301124,730.5128,886.4469,882.8205,714.7985,710.7692,0.138671875,-0.03216552734375,0.99029541015625,1.86920166015625,-3.96270751953125,-0.88226318359375,1,1.0,1.0,2.0,1.0,40.00
2024-03-04 10:08:32.917,1.2709286,1.3879492,0.0,1.350855,0.9705943,1.2833319,0.0,0.6808004,1.1237863,1.135355,0.0,0.78026676,0.8019962,0.85323685,0.0,0.72757745,0.56714696,0.121454604,0.0,0.49264804,878.3883,881.2088,879.59705,808.68134,1023.8461,0.1331787109375,-0.0384521484375,0.99432373046875,1.614990234375,-3.581390380859375,-1.51031494140625,1,1.0,1.0,2.0,1.0,40.00
2024-03-04 10:08:32.970,,,,,,,,,,,,,,,,,,,,,,,,,,,,,,,,,,,,,,/muse/elements/blink
2024-03-04 10:08:33.181,,,,,,,,,,,,,,,,,,,,,,,,,,,,,,,,,,,,,,/muse/elements/blink
2024-03-04 10:08:33.936,1.2570537,1.4529456,0.0,1.350855,1.1779613,1.3629622,0.0,0.6808004,1.219387,1.1336155,0.0,0.78026676,0.78896916,0.8821819,0.0,0.72757745,0.6063931,0.15182891,0.0,0.49264804,913.44324,792.1612,679.34064,898.1319,1065.751,0.13201904296875,-0.0380859375,0.99481201171875,2.250518798828125,-3.887939453125,-0.964508056640625,1,1.0,1.0,2.0,1.0,40.00
2024-03-04 10:08:34.064,,,,,,,,,,,,,,,,,,,,,,,,,,,,,,,,,,,,,,/muse/elements/blink
2024-03-04 10:08:34.377,,,,,,,,,,,,,,,,,,,,,,,,,,,,,,,,,,,,,,/muse/elements/blink
2024-03-04 10:08:34.948,1.195955,1.4529456,0.0,1.350855,1.1506095,1.3629622,0.0,0.6808004,1.0041921,1.1336155,0.0,0.78026676,0.73072404,0.8821819,0.0,0.72757745,0.6641422,0.15182891,0.0,0.49264804,757.50916,823.5897,828.4249,762.74725,669.2674,0.1300048828125,-0.03955078125,0.99420166015625,1.891632080078125,-3.87298583984375,-1.278533935546875,1,1.0,1.0,2.0,1.0,40.00
2024-03-04 10:08:35.405,,,,,,,,,,,,,,,,,,,,,,,,,,,,,,,,,,,,,,/muse/elements/blink
2024-03-04 10:08:35.830,,,,,,,,,,,,,,,,,,,,,,,,,,,,,,,,,,,,,,/muse/elements/blink
2024-03-04 10:08:35.969,0.8850248,1.1151687,0.0,1.350855,0.7394582,1.0068944,0.0,0.6808004,0.8024272,0.92857355,0.0,0.78026676,0.94600135,0.5324837,0.0,0.72757745,0.39347735,0.05640178,0.0,0.49264804,950.5128,842.52747,1019.81683,988.3883,985.56775,0.14892578125,-0.0361328125,0.98736572265625,1.861724853515625,-5.8917236328125,-1.71966552734375,1,1.0,1.0,2.0,1.0,40.00
2024-03-04 10:08:36.735,,,,,,,,,,,,,,,,,,,,,,,,,,,,,,,,,,,,,,/muse/elements/blink
2024-03-04 10:08:36.982,0.85296804,1.2023296,0.0,1.350855,0.8016224,0.91770667,0.0,0.6808004,0.7852842,0.671393,0.0,0.78026676,0.9626657,0.5607441,0.0,0.72757745,0.38803822,0.2799269,0.0,0.49264804,750.65936,779.67035,460.54944,764.35895,526.2271,0.16619873046875,-0.0308837890625,0.988525390625,1.233673095703125,-3.760833740234375,-1.854248046875,1,1.0,1.0,2.0,1.0,40.00
2024-03-04 10:08:37.965,,,,,,,,,,,,,,,,,,,,,,,,,,,,,,,,,,,,,,/muse/elements/blink
2024-03-04 10:08:37.985,0.85296804,1.3472788,0.0,1.350855,0.8016224,0.95788586,0.0,0.6808004,0.7852842,0.53482556,0.0,0.78026676,0.9626657,0.64234275,0.0,0.72757745,0.38803822,0.37459406,0.0,0.49264804,877.5824,857.03296,695.8608,838.9011,743.4066,0.16278076171875,-0.02960205078125,0.99298095703125,1.614990234375,-3.745880126953125,-1.293487548828125,1,1.0,1.0,2.0,1.0,40.00
2024-03-04 10:08:39.004,1.2876409,1.2536894,0.0,1.2723627,1.0371138,0.8810986,0.0,1.0574619,1.0954701,0.6633876,0.0,1.0290084,0.87707126,0.9809071,0.0,1.0045199,0.60049397,0.23906602,0.0,0.9378434,771.2088,838.0952,687.3993,768.3883,831.2454,0.15838623046875,-0.03387451171875,0.99114990234375,2.07855224609375,-4.246826171875,-1.054229736328125,1,1.0,1.0,2.0,1.0,40.00
2024-03-04 10:08:39.170,,,,,,,,,,,,,,,,,,,,,,,,,,,,,,,,,,,,,,/muse/elements/blink
2024-03-04 10:08:40.013,1.182589,1.3554182,0.0,1.2723627,0.9218637,1.2208626,0.0,1.0574619,1.0980902,0.86176795,0.0,1.0290084,0.79410243,0.81450105,0.0,1.0045199,0.75542754,0.1757957,0.0,0.9378434,892.8938,861.4652,840.10986,863.47986,1158.4249,0.167724609375,-0.03387451171875,0.99420166015625,1.727142333984375,-3.768310546875,-1.398162841796875,1,1.0,1.0,2.0,1.0,40.00
2024-03-04 10:08:40.481,,,,,,,,,,,,,,,,,,,,,,,,,,,,,,,,,,,,,,/muse/elements/blink
2024-03-04 10:08:41.027,0.8921099,1.2642666,0.0,0.76352984,0.6025191,1.3709146,0.0,0.92931026,0.9229027,0.67793477,0.0,0.8134711,0.8989928,0.62576216,0.0,1.1604352,0.794241,0.19455308,0.0,0.9985816,832.0513,1262.381,925.9341,831.6484,773.22345,0.15875244140625,-0.033203125,0.989501953125,0.897216796875,-3.3795166015625,-1.173858642578125,1,1.0,1.0,2.0,1.0,40.00
2024-03-04 10:08:41.713,,,,,,,,,,,,,,,,,,,,,,,,,,,,,,,,,,,,,,/muse/elements/blink
2024-03-04 10:08:42.040,0.91591686,1.2602612,0.0,0.76352984,0.64500874,1.4024969,0.0,0.92931026,0.7081272,0.48411044,0.0,0.8134711,0.911357,0.6332605,0.0,1.1604352,0.6299658,0.21342658,0.0,0.9985816,829.2308,847.3626,822.381,812.3077,716.0073,0.16290283203125,-0.0379638671875,0.9892578125,2.145843505859375,-3.8580322265625,-0.934600830078125,1,1.0,1.0,2.0,1.0,40.00
2024-03-04 10:08:43.024,,,,,,,,,,,,,,,,,,,,,,,,,,,,,,,,,,,,,,/muse/elements/blink
2024-03-04 10:08:43.044,0.66675466,1.2602612,0.0,0.7473702,0.38313472,1.4024969,0.0,0.19798577,0.66203344,0.48411044,0.0,0.60070217,0.8263967,0.6332605,0.0,0.97398525,0.6467757,0.21342658,0.0,0.6948326,871.53845,895.31134,798.60803,875.56775,1189.4506,0.1590576171875,-0.0350341796875,0.993896484375,1.203765869140625,-3.760833740234375,-1.547698974609375,1,1.0,1.0,2.0,1.0,40.00
2024-03-04 10:08:44.057,0.8128619,1.2602612,0.0,0.81667167,0.82096463,1.4024969,0.0,0.62070626,0.76307726,0.48411044,0.0,0.79645646,0.8699766,0.6332605,0.0,0.80555975,0.55236685,0.21342658,0.0,0.52228963,737.76556,847.3626,550.40295,727.6923,599.5604,0.2176513671875,0.01483154296875,1.0238037109375,5.585174560546875,-2.3028564453125,-19.5294189453125,1,1.0,1.0,2.0,1.0,40.00
2024-03-04 10:08:44.226,,,,,,,,,,,,,,,,,,,,,,,,,,,,,,,,,,,,,,/muse/elements/blink
2024-03-04 10:08:45.064,0.94129956,1.1072209,0.0,0.91415423,0.7759505,1.0446628,0.0,0.44270593,0.6554816,0.8598764,0.0,0.9348709,0.86216915,0.7958485,0.0,1.035677,0.5884123,0.14077514,0.0,0.64689904,865.89746,812.71063,881.6117,844.1392,827.619,0.15966796875,-0.04144287109375,0.988037109375,1.308441162109375,-3.267364501953125,-2.27294921875,1,1.0,1.0,2.0,1.0,40.00
2024-03-04 10:08:45.541,,,,,,,,,,,,,,,,,,,,,,,,,,,,,,,,,,,,,,/muse/elements/blink
2024-03-04 10:08:46.086,0.94129956,1.0367227,0.0,0.5479006,0.7759505,0.9723884,0.0,0.4106774,0.6554816,0.87022287,0.0,0.8073442,0.86216915,0.76290846,0.0,1.0409497,0.5884123,0.1534065,0.0,0.73563087,758.315,819.15753,469.4139,755.4945,848.1685,0.16058349609375,-0.0438232421875,0.99285888671875,1.667327880859375,-4.2767333984375,-0.83740234375,1,1.0,1.0,2.0,1.0,40.00
2024-03-04 10:08:46.758,,,,,,,,,,,,,,,,,,,,,,,,,,,,,,,,,,,,,,/muse/elements/blink
2024-03-04 10:08:47.090,1.1424541,0.8553752,0.0,0.2889121,0.63121396,0.8026034,0.0,0.53286266,0.569594,0.6889205,0.0,0.5755578,0.87668127,0.7460045,0.0,1.0572886,0.5248003,0.15663269,0.0,0.77913356,776.8498,725.2747,606.4103,752.27106,594.7253,0.160888671875,-0.04876708984375,0.99395751953125,1.353302001953125,-4.02252197265625,-1.854248046875,1,1.0,1.0,2.0,1.0,40.00
2024-03-04 10:08:48.073,,,,,,,,,,,,,,,,,,,,,,,,,,,,,,,,,,,,,,/muse/elements/blink
2024-03-04 10:08:48.096,0.9776022,0.8553752,0.0,0.9190043,0.74503684,0.8026034,0.0,0.71900797,0.9353678,0.6889205,0.0,0.93590605,0.84117806,0.7460045,0.0,0.7355117,0.54253805,0.15663269,0.0,0.54500014,802.6374,853.00366,838.49817,795.78754,795.78754,0.1707763671875,-0.0428466796875,0.99041748046875,1.89910888671875,-4.104766845703125,-0.186920166015625,1,1.0,1.0,2.0,1.0,40.00
2024-03-04 10:08:48.668,,,,,,,,,,,,,,,,,,,,,,,,,,,,,,,,,,,,,,/muse/elements/blink
2024-03-04 10:08:49.004,,,,,,,,,,,,,,,,,,,,,,,,,,,,,,,,,,,,,,/muse/elements/blink
2024-03-04 10:08:49.110,0.85742104,0.8553752,0.0,0.84137243,0.7391235,0.8026034,0.0,0.9618229,0.89613736,0.6889205,0.0,1.20836,0.83308685,0.7460045,0.0,0.8316557,0.58071566,0.15663269,0.0,0.6503414,783.2967,786.9231,583.44324,769.59705,633.00366,0.15948486328125,-0.04083251953125,0.9915771484375,1.996307373046875,-4.007568359375,-1.607513427734375,1,1.0,1.0,2.0,1.0,40.00
2024-03-04 10:08:49.437,,,,,,,,,,,,,,,,,,,,,,,,,,,,,,,,,,,,,,/muse/elements/blink
2024-03-04 10:08:50.134,1.0078788,0.8553752,0.0,0.92783,0.93576175,0.8026034,0.0,1.2247131,0.8601361,0.6889205,0.0,1.20836,0.8634579,0.7460045,0.0,0.9313385,0.705695,0.15663269,0.0,0.68865293,878.7912,808.2784,903.7729,869.92676,933.5897,0.16473388671875,-0.0352783203125,0.9925537109375,1.6748046875,-4.059906005859375,-1.099090576171875,1,1.0,1.0,2.0,1.0,40.00
2024-03-04 10:08:50.673,,,,,,,,,,,,,,,,,,,,,,,,,,,,,,,,,,,,,,/muse/elements/blink
2024-03-04 10:08:51.143,0.8314295,0.8553752,0.0,0.7174226,0.6456979,0.8026034,0.0,0.7019895,0.9987888,0.6889205,0.0,0.9896714,0.7119671,0.7460045,0.0,0.5908865,0.47423849,0.15663269,0.0,0.5224818,799.41394,811.50183,589.0842,773.6264,555.2381,0.1597900390625,-0.04150390625,0.99072265625,1.51031494140625,-4.059906005859375,-1.614990234375,1,1.0,1.0,2.0,1.0,40.00
2024-03-04 10:08:51.881,,,,,,,,,,,,,,,,,,,,,,,,,,,,,,,,,,,,,,/muse/elements/blink
2024-03-04 10:08:52.164,1.1042919,0.8553752,0.0,0.73646104,0.6637832,0.8026034,0.0,0.65390015,0.93935806,0.6889205,0.0,0.8826403,0.6318848,0.7460045,0.0,0.5958372,0.5601544,0.15663269,0.0,0.3587221,900.9524,838.49817,855.42126,870.7326,1015.78754,0.1617431640625,-0.04290771484375,0.99090576171875,1.502838134765625,-3.416900634765625,-1.6448974609375,1,1.0,1.0,2.0,1.0,40.00
2024-03-04 10:08:53.185,1.020218,0.8232523,0.0,0.6290371,0.64663464,0.9579981,0.0,0.63210523,0.8851418,1.0034944,0.0,1.03756,0.698784,0.5349176,0.0,0.7207019,0.6054617,0.12852702,0.0,0.5761988,756.7033,818.7546,514.1392,781.28204,790.14655,0.16888427734375,-0.04071044921875,0.9892578125,2.295379638671875,-4.306640625,-1.5252685546875,1,1.0,1.0,2.0,1.0,40.00
2024-03-04 10:08:53.189,,,,,,,,,,,,,,,,,,,,,,,,,,,,,,,,,,,,,,/muse/elements/blink
2024-03-04 10:08:54.190,0.43608847,0.96187663,0.0,0.3070961,0.026749706,0.916726,0.0,0.30038524,0.3930233,0.96192276,0.0,0.4681494,0.6966054,0.6183543,0.0,0.6506505,0.54047793,0.080157146,0.0,0.50329626,860.65936,843.73627,911.4286,866.30035,962.1978,0.16741943359375,-0.04571533203125,0.99066162109375,1.9439697265625,-4.14215087890625,-1.36077880859375,1,1.0,1.0,2.0,1.0,40.00
2024-03-04 10:08:54.401,,,,,,,,,,,,,,,,,,,,,,,,,,,,,,,,,,,,,,/muse/elements/blink
2024-03-04 10:08:54.581,,,,,,,,,,,,,,,,,,,,,,,,,,,,,,,,,,,,,,/muse/elements/blink
2024-03-04 10:08:55.203,0.901803,1.3724233,0.0,0.8981684,0.76051664,0.7640202,0.0,0.6382468,0.7115838,0.773601,0.0,0.8396952,0.727622,0.73556334,0.0,0.8670883,0.5665928,0.24833396,0.0,0.5584665,779.67035,830.84247,625.7509,792.5641,871.9414,0.16119384765625,-0.03802490234375,0.991455078125,1.7047119140625,-3.70849609375,-1.77947998046875,1,1.0,1.0,2.0,1.0,40.00
2024-03-04 10:08:55.608,,,,,,,,,,,,,,,,,,,,,,,,,,,,,,,,,,,,,,/muse/elements/blink
2024-03-04 10:08:55.815,,,,,,,,,,,,,,,,,,,,,,,,,,,,,,,,,,,,,,/muse/elements/blink
2024-03-04 10:08:56.215,0.9401341,1.4151092,0.0,0.9494233,0.79235536,0.6929592,0.0,0.80937004,0.9502589,0.7711751,0.0,1.017286,0.75297064,0.747017,0.0,0.88286984,0.55065596,0.24909829,0.0,0.6631106,888.46155,835.6777,844.5421,871.13556,940.4396,0.16552734375,-0.03857421875,0.98944091796875,1.772003173828125,-3.4393310546875,-1.6748046875,1,1.0,1.0,2.0,1.0,40.00
2024-03-04 10:08:56.936,,,,,,,,,,,,,,,,,,,,,,,,,,,,,,,,,,,,,,/muse/elements/blink
2024-03-04 10:08:57.112,,,,,,,,,,,,,,,,,,,,,,,,,,,,,,,,,,,,,,/muse/elements/blink
2024-03-04 10:08:57.218,0.9088957,1.4151092,0.0,0.86218804,0.73685026,0.6929592,0.0,0.69412017,0.95785636,0.7711751,0.0,1.052656,0.75213265,0.747017,0.0,0.83471596,0.6393403,0.24909829,0.0,0.5530706,800.2198,799.011,666.8498,799.011,479.48718,0.1610107421875,-0.0382080078125,0.9945068359375,2.01873779296875,-4.314117431640625,-1.757049560546875,1,1.0,1.0,2.0,1.0,40.00
2024-03-04 10:08:57.848,,,,,,,,,,,,,,,,,,,,,,,,,,,,,,,,,,,,,,/muse/elements/blink
2024-03-04 10:08:58.238,0.85719055,1.4151092,0.0,0.9176746,0.79907507,0.6929592,0.0,0.8971406,0.8418961,0.7711751,0.0,0.9107783,0.71815324,0.747017,0.0,0.7303778,0.44118613,0.24909829,0.0,0.17820929,796.1905,813.5165,736.55676,774.43225,787.326,0.1654052734375,-0.04278564453125,0.99530029296875,1.712188720703125,-3.656158447265625,-1.338348388671875,1,1.0,1.0,2.0,1.0,40.00
2024-03-04 10:08:58.348,,,,,,,,,,,,,,,,,,,,,,,,,,,,,,,,,,,,,,/muse/elements/blink
2024-03-04 10:08:58.571,,,,,,,,,,,,,,,,,,,,,,,,,,,,,,,,,,,,,,/muse/elements/blink
2024-03-04 10:08:59.246,0.85719055,1.4151092,0.0,0.9176746,0.79907507,0.6929592,0.0,0.8971406,0.8418961,0.7711751,0.0,0.9107783,0.71815324,0.747017,0.0,0.7303778,0.44118613,0.24909829,0.0,0.17820929,790.9524,858.24176,573.7729,790.9524,990.40295,0.1627197265625,-0.0450439453125,0.992919921875,1.27105712890625,-3.506622314453125,-1.3458251953125,1,1.0,1.0,2.0,1.0,40.00
2024-03-04 10:08:59.474,,,,,,,,,,,,,,,,,,,,,,,,,,,,,,,,,,,,,,/muse/elements/blink
2024-03-04 10:09:00.265,1.4116915,1.4151092,0.0,0.9176746,0.85610133,0.6929592,0.0,0.8971406,1.1031702,0.7711751,0.0,0.9107783,0.9328072,0.747017,0.0,0.7303778,0.90848124,0.24909829,0.0,0.17820929,875.9707,805.05493,661.2088,848.1685,990.40295,0.13995361328125,-0.0601806640625,0.98077392578125,-2.056121826171875,-2.52716064453125,-1.293487548828125,1,1.0,1.0,2.0,1.0,40.00
2024-03-04 10:09:00.769,,,,,,,,,,,,,,,,,,,,,,,,,,,,,,,,,,,,,,/muse/elements/blink
2024-03-04 10:09:01.276,1.1152347,1.4600855,0.0,0.98612744,0.7910569,1.0175593,0.0,0.8672544,1.1529436,0.80992633,0.0,1.0055786,0.7913567,0.5764353,0.0,0.71505004,0.7768899,0.15207288,0.0,0.5978974,841.31866,816.7399,965.82416,842.9304,821.5751,0.15753173828125,-0.04962158203125,0.9927978515625,2.160797119140625,-4.6954345703125,-1.682281494140625,1,1.0,1.0,2.0,1.0,40.00
2024-03-04 10:09:01.991,,,,,,,,,,,,,,,,,,,,,,,,,,,,,,,,,,,,,,/muse/elements/blink
2024-03-04 10:09:02.294,0.6425435,1.3232862,0.0,0.76351327,0.8790543,0.8759152,0.0,0.7958906,1.0431862,0.81389725,0.0,0.90504307,0.6212714,0.66267806,0.0,0.66914886,0.67472816,0.36061504,0.0,0.48788625,859.0476,811.50183,539.12085,834.0659,610.0366,0.1610107421875,-0.04583740234375,0.99127197265625,0.785064697265625,-3.45428466796875,-2.115936279296875,1,1.0,1.0,2.0,1.0,40.00
2024-03-04 10:09:02.325,,,,,,,,,,,,,,,,,,,,,,,,,,,,,,,,,,,,,,/muse/elements/blink
2024-03-04 10:09:03.020,,,,,,,,,,,,,,,,,,,,,,,,,,,,,,,,,,,,,,/muse/elements/blink
2024-03-04 10:09:03.295,,,,,,,,,,,,,,,,,,,,,,,,,,,,,,,,,,,,,,/muse/elements/blink
2024-03-04 10:09:03.317,0.6690978,1.0429167,0.0,0.7051689,1.0336841,0.78734404,0.0,0.9664387,0.8267271,0.76912254,0.0,0.7378695,0.7074358,0.7449978,0.0,0.467157,0.7834756,0.45655358,0.0,0.55713767,794.17584,801.4286,827.619,802.23444,736.9597,0.16314697265625,-0.05157470703125,0.9901123046875,1.614990234375,-3.72344970703125,-1.57012939453125,1,1.0,1.0,2.0,1.0,40.00
2024-03-04 10:09:04.328,0.6690978,1.0429167,0.0,0.7051689,1.0336841,0.78734404,0.0,0.9664387,0.8267271,0.76912254,0.0,0.7378695,0.7074358,0.7449978,0.0,0.467157,0.7834756,0.45655358,0.0,0.55713767,863.0769,818.7546,786.1172,842.52747,741.79486,0.1549072265625,-0.052734375,0.99163818359375,2.13836669921875,-4.284210205078125,-0.9869384765625,1,1.0,1.0,2.0,1.0,40.00
2024-03-04 10:09:04.534,,,,,,,,,,,,,,,,,,,,,,,,,,,,,,,,,,,,,,/muse/elements/blink
2024-03-04 10:09:05.333,0.8684689,1.2652098,0.0,0.7051689,0.22973803,0.8499688,0.0,0.9664387,0.7218096,0.84132683,0.0,0.7378695,0.74794996,0.80625826,0.0,0.467157,0.7463945,0.19288854,0.0,0.55713767,871.13556,820.3663,863.8828,859.0476,1046.8132,0.1622314453125,-0.05145263671875,0.99072265625,2.3028564453125,-4.134674072265625,-0.889739990234375,1,1.0,1.0,2.0,1.0,40.00
2024-03-04 10:09:05.886,,,,,,,,,,,,,,,,,,,,,,,,,,,,,,,,,,,,,,/muse/elements/blink
2024-03-04 10:09:06.346,0.70316315,1.2652098,0.0,0.5548057,0.38837638,0.8499688,0.0,0.5573165,0.6664811,0.84132683,0.0,0.41954428,0.9297142,0.80625826,0.0,0.5741072,0.61326945,0.19288854,0.0,0.58358335,785.7143,827.2161,458.13187,766.77655,805.05493,0.1568603515625,-0.0557861328125,0.98919677734375,2.691650390625,-4.4561767578125,-0.994415283203125,1,1.0,1.0,2.0,1.0,40.00
2024-03-04 10:09:07.084,,,,,,,,,,,,,,,,,,,,,,,,,,,,,,,,,,,,,,/muse/elements/blink
2024-03-04 10:09:07.359,0.6651997,1.2652098,0.0,0.59058535,0.2732589,0.8499688,0.0,0.34600854,0.48321766,0.84132683,0.0,0.4665165,0.9115102,0.80625826,0.0,0.71938175,0.63967985,0.19288854,0.0,0.64271736,954.5421,800.6227,898.5348,940.0366,855.0183,0.16107177734375,-0.0504150390625,0.9920654296875,1.667327880859375,-4.42626953125,-1.65985107421875,1,1.0,1.0,2.0,1.0,40.00
2024-03-04 10:09:07.368,,,,,,,,,,,,,,,,,,,,,,,,,,,,,,,,,,,,,,/muse/elements/blink
2024-03-04 10:09:07.995,,,,,,,,,,,,,,,,,,,,,,,,,,,,,,,,,,,,,,/muse/elements/blink
2024-03-04 10:09:08.333,,,,,,,,,,,,,,,,,,,,,,,,,,,,,,,,,,,,,,/muse/elements/blink
2024-03-04 10:09:08.365,0.4411866,1.2652098,0.0,0.21109958,0.3390781,0.8499688,0.0,0.32627743,0.3852446,0.84132683,0.0,0.28522927,0.78793347,0.80625826,0.0,0.7677359,0.54876405,0.19288854,0.0,0.5097527,756.7033,825.6044,737.76556,748.24176,582.23444,0.1590576171875,-0.04913330078125,0.98992919921875,1.18133544921875,-3.476715087890625,-1.607513427734375,1,1.0,1.0,2.0,1.0,40.00
2024-03-04 10:09:08.516,,,,,,,,,,,,,,,,,,,,,,,,,,,,,,,,,,,,,,/muse/elements/blink
2024-03-04 10:09:09.371,0.4411866,1.2652098,0.0,0.21109958,0.3390781,0.8499688,0.0,0.32627743,0.3852446,0.84132683,0.0,0.28522927,0.78793347,0.80625826,0.0,0.7677359,0.54876405,0.19288854,0.0,0.5097527,798.60803,818.7546,578.20514,790.14655,792.96704,0.16094970703125,-0.05584716796875,0.9852294921875,0.46356201171875,-3.3197021484375,-1.308441162109375,1,1.0,1.0,2.0,1.0,40.00
2024-03-04 10:09:09.672,,,,,,,,,,,,,,,,,,,,,,,,,,,,,,,,,,,,,,/muse/elements/blink
2024-03-04 10:09:10.382,0.83254045,1.2652098,0.0,1.0991662,0.8158728,0.8499688,0.0,0.9634726,1.1402761,0.84132683,0.0,1.0108743,0.99211013,0.80625826,0.0,0.942507,0.48972946,0.19288854,0.0,0.2817772,755.09155,805.4579,640.65936,768.7912,752.27106,0.16265869140625,-0.05224609375,0.99176025390625,2.03369140625,-4.17205810546875,-1.502838134765625,1,1.0,1.0,2.0,1.0,40.00
2024-03-04 10:09:11.053,,,,,,,,,,,,,,,,,,,,,,,,,,,,,,,,,,,,,,/muse/elements/blink
2024-03-04 10:09:11.404,0.48361647,1.4007314,0.0,0.5611301,0.3959182,1.3345497,0.0,0.25613573,0.82554495,1.3631299,0.0,0.4514945,0.8763012,0.6038344,0.0,0.677253,0.6308704,0.5236726,0.0,0.3829363,741.39197,788.93774,647.9121,743.8095,500.43958,0.16607666015625,-0.0467529296875,0.98809814453125,1.816864013671875,-3.940277099609375,-1.413116455078125,1,1.0,1.0,2.0,1.0,40.00
2024-03-04 10:09:12.175,,,,,,,,,,,,,,,,,,,,,,,,,,,,,,,,,,,,,,/muse/elements/blink
2024-03-04 10:09:12.413,0.52683306,1.3753456,0.0,0.38066128,0.49969256,1.3468248,0.0,0.5670024,0.6986621,1.3607702,0.0,0.6462828,0.813233,0.6298557,0.0,0.7450096,0.54253685,0.5490096,0.0,0.5175911,828.4249,810.293,874.7619,836.8865,850.989,0.1649169921875,-0.05181884765625,0.98907470703125,2.041168212890625,-3.7384033203125,-1.15142822265625,1,1.0,1.0,2.0,1.0,40.00
2024-03-04 10:09:13.424,0.40293953,1.1560664,0.0,0.6477614,0.22100876,0.9437931,0.0,0.27991292,0.6722329,0.9937566,0.0,0.67672604,0.78550774,0.6810274,0.0,0.65071225,0.43345833,0.41432628,0.0,0.49753723,776.04395,812.71063,749.0476,781.685,679.34064,0.15875244140625,-0.05023193359375,0.99298095703125,1.45050048828125,-3.96270751953125,-1.4654541015625,1,1.0,1.0,2.0,1.0,40.00
2024-03-04 10:09:13.471,,,,,,,,,,,,,,,,,,,,,,,,,,,,,,,,,,,,,,/muse/elements/blink
2024-03-04 10:09:14.409,,,,,,,,,,,,,,,,,,,,,,,,,,,,,,,,,,,,,,/muse/elements/blink
2024-03-04 10:09:14.439,0.8585923,1.026305,0.0,0.8678254,0.42418462,0.9372441,0.0,0.5090057,0.5834694,0.9918719,0.0,0.7874443,0.7365135,0.41722867,0.0,0.6225743,0.56717074,0.43327454,0.0,0.5195419,904.17584,830.84247,930.7692,890.07324,1091.5385,0.15985107421875,-0.04693603515625,0.9931640625,1.801910400390625,-4.000091552734375,-1.293487548828125,1,1.0,1.0,2.0,1.0,40.00
2024-03-04 10:09:14.606,,,,,,,,,,,,,,,,,,,,,,,,,,,,,,,,,,,,,,/muse/elements/blink
2024-03-04 10:09:15.447,0.96024656,1.1278129,0.0,1.0322456,0.752919,0.87905276,0.0,0.8634342,0.94190484,0.7003214,0.0,1.0542232,0.7692202,0.5336732,0.0,0.8040116,0.49758354,0.20260851,0.0,0.5079824,782.0879,787.72894,792.1612,804.65204,736.55676,0.1607666015625,-0.0494384765625,0.99176025390625,1.5850830078125,-3.70849609375,-1.33087158203125,1,1.0,1.0,2.0,1.0,40.00
2024-03-04 10:09:15.724,,,,,,,,,,,,,,,,,,,,,,,,,,,,,,,,,,,,,,/muse/elements/blink
2024-03-04 10:09:15.926,,,,,,,,,,,,,,,,,,,,,,,,,,,,,,,,,,,,,,/muse/elements/blink
2024-03-04 10:09:16.451,0.7162826,1.1889328,0.0,1.0157555,0.7618104,0.9757116,0.0,0.99244875,0.92919904,0.8690555,0.0,1.1517633,0.70220506,0.6453325,0.0,0.78632766,0.6540858,0.44465503,0.0,0.5628119,876.77655,835.6777,819.5604,866.30035,837.28937,0.15924072265625,-0.05230712890625,0.9932861328125,1.398162841796875,-3.46923828125,-0.79254150390625,1,1.0,1.0,2.0,1.0,40.00
2024-03-04 10:09:17.064,,,,,,,,,,,,,,,,,,,,,,,,,,,,,,,,,,,,,,/muse/elements/blink
2024-03-04 10:09:17.220,,,,,,,,,,,,,,,,,,,,,,,,,,,,,,,,,,,,,,/muse/elements/blink
2024-03-04 10:09:17.464,1.1090642,1.327526,0.0,1.0764707,0.9991962,1.021449,0.0,1.1060972,1.1511931,0.7554184,0.0,1.1567947,0.84130883,0.70477605,0.0,0.8943201,0.7906136,0.5142362,0.0,0.59195524,882.4176,848.5714,908.20514,855.0183,950.9158,0.17266845703125,-0.0455322265625,0.98736572265625,-0.2691650390625,-3.4991455078125,0.650482177734375,1,1.0,1.0,2.0,1.0,40.00
2024-03-04 10:09:17.908,,,,,,,,,,,,,,,,,,,,,,,,,,,,,,,,,,,,,,/muse/elements/blink
2024-03-04 10:09:18.332,,,,,,,,,,,,,,,,,,,,,,,,,,,,,,,,,,,,,,/muse/elements/blink
2024-03-04 10:09:18.486,1.2313774,1.327526,0.0,1.2665344,0.890558,1.021449,0.0,0.9147282,0.93522125,0.7554184,0.0,0.6575244,0.6479324,0.70477605,0.0,0.78090346,0.5924652,0.5142362,0.0,0.5360718,813.91943,840.10986,787.72894,806.6667,660.40295,0.1083984375,0.0206298828125,1.00201416015625,9.547882080078125,5.256195068359375,0.112152099609375,1,1.0,1.0,2.0,1.0,35.00
2024-03-04 10:09:18.547,,,,,,,,,,,,,,,,,,,,,,,,,,,,,,,,,,,,,,/muse/elements/blink
2024-03-04 10:09:19.498,1.2313774,1.327526,0.0,0.9675647,0.890558,1.021449,0.0,0.61591214,0.93522125,0.7554184,0.0,1.1663791,0.6479324,0.70477605,0.0,0.9559275,0.5924652,0.5142362,0.0,0.6251909,783.69965,794.57874,734.94507,796.1905,842.9304,4.8828125E-4,0.0517578125,1.00048828125,4.65057373046875,0.306549072265625,-2.370147705078125,1,1.0,1.0,2.0,1.0,35.00
2024-03-04 10:09:19.581,,,,,,,,,,,,,,,,,,,,,,,,,,,,,,,,,,,,,,/muse/elements/blink
2024-03-04 10:09:20.270,,,,,,,,,,,,,,,,,,,,,,,,,,,,,,,,,,,,,,/muse/elements/blink
2024-03-04 10:09:20.519,0.9360666,1.327526,0.0,1.0520006,0.76805437,1.021449,0.0,0.7060522,1.1059953,0.7554184,0.0,1.1663791,1.0003772,0.70477605,0.0,0.91621244,0.70040697,0.5142362,0.0,0.5188541,942.0513,788.1319,961.79486,899.7436,934.7985,0.050537109375,0.01934814453125,1.00787353515625,-4.3963623046875,-3.895416259765625,-5.435638427734375,1,1.0,1.0,2.0,1.0,35.00
2024-03-04 10:09:20.713,,,,,,,,,,,,,,,,,,,,,,,,,,,,,,,,,,,,,,/muse/elements/blink
2024-03-04 10:09:20.991,,,,,,,,,,,,,,,,,,,,,,,,,,,,,,,,,,,,,,/muse/elements/blink
2024-03-04 10:09:21.296,,,,,,,,,,,,,,,,,,,,,,,,,,,,,,,,,,,,,,/muse/elements/blink
2024-03-04 10:09:21.523,0.657341,1.327526,0.0,1.1138009,0.8709176,1.021449,0.0,0.83421844,0.8332721,0.7554184,0.0,0.78954446,0.9301254,0.70477605,0.0,0.8386026,0.73866224,0.5142362,0.0,0.34390762,841.31866,815.12823,945.6777,841.7216,824.3956,0.02581787109375,0.013916015625,1.00537109375,2.938385009765625,-4.568328857421875,0.052337646484375,1,1.0,1.0,2.0,1.0,35.00
2024-03-04 10:09:22.188,,,,,,,,,,,,,,,,,,,,,,,,,,,,,,,,,,,,,,/muse/elements/blink
2024-03-04 10:09:22.535,0.657341,1.327526,0.0,1.1138009,0.8709176,1.021449,0.0,0.83421844,0.8332721,0.7554184,0.0,0.78954446,0.9301254,0.70477605,0.0,0.8386026,0.73866224,0.5142362,0.0,0.34390762,803.0403,820.3663,662.4176,793.7729,769.59705,0.028076171875,0.01025390625,0.99945068359375,1.54022216796875,-3.536529541015625,-1.099090576171875,1,1.0,1.0,2.0,1.0,35.00
2024-03-04 10:09:23.295,,,,,,,,,,,,,,,,,,,,,,,,,,,,,,,,,,,,,,/muse/elements/blink
2024-03-04 10:09:23.544,0.657341,1.103993,0.0,1.0733868,0.8709176,0.93500406,0.0,0.8636326,0.8332721,0.94194806,0.0,0.99742025,0.9301254,0.7224242,0.0,0.7435101,0.73866224,0.44403303,0.0,0.20657827,876.77655,810.696,973.47986,869.92676,946.08057,0.033935546875,0.0096435546875,1.00299072265625,1.981353759765625,-4.38140869140625,-0.725250244140625,1,1.0,1.0,2.0,1.0,35.00
2024-03-04 10:09:23.639,,,,,,,,,,,,,,,,,,,,,,,,,,,,,,,,,,,,,,/muse/elements/blink
2024-03-04 10:09:24.556,1.0445075,1.0270296,0.0,0.9761934,0.85581326,0.9521526,0.0,0.8805277,0.98782736,0.87718725,0.0,0.9171475,0.7619983,0.6248428,0.0,0.78423965,0.74455357,0.3592923,0.0,0.4770257,782.8938,828.8278,626.9597,792.96704,561.685,0.03631591796875,0.01483154296875,1.0037841796875,0.949554443359375,-4.224395751953125,-0.22430419921875,1,1.0,1.0,2.0,1.0,35.00
2024-03-04 10:09:24.637,,,,,,,,,,,,,,,,,,,,,,,,,,,,,,,,,,,,,,/muse/elements/blink
2024-03-04 10:09:25.567,0.94781876,0.91492933,0.0,1.0645571,0.70918834,1.1458933,0.0,0.73108333,0.93639463,0.9498719,0.0,0.7504096,0.8072202,0.61541337,0.0,0.73476106,0.663137,0.16551265,0.0,0.46194443,832.0513,843.73627,932.7839,808.68134,792.1612,0.04217529296875,0.01422119140625,1.00213623046875,1.562652587890625,-3.745880126953125,-1.114044189453125,1,1.0,1.0,2.0,1.0,35.00
2024-03-04 10:09:25.778,,,,,,,,,,,,,,,,,,,,,,,,,,,,,,,,,,,,,,/muse/elements/blink
2024-03-04 10:09:26.578,0.96234316,1.0742325,0.0,1.257871,0.52770776,1.1784675,0.0,0.6249192,0.71750855,0.9589341,0.0,0.6577301,0.9056072,0.634439,0.0,0.7134637,0.50790966,0.11473377,0.0,0.23216929,781.28204,832.0513,743.00366,779.67035,586.6667,0.04205322265625,0.01275634765625,1.00457763671875,1.532745361328125,-4.000091552734375,-1.413116455078125,1,1.0,1.0,2.0,1.0,35.00
2024-03-04 10:09:27.073,,,,,,,,,,,,,,,,,,,,,,,,,,,,,,,,,,,,,,/muse/elements/blink
2024-03-04 10:09:27.598,1.0277097,0.8730471,0.0,0.96330845,0.96709454,0.4327665,0.0,0.8140537,0.96596843,0.55283546,0.0,0.83019733,0.76116055,0.68478894,0.0,0.9017314,0.60664845,0.20070048,0.0,0.58575857,861.8681,838.49817,1068.5714,845.34796,828.022,0.04266357421875,0.01287841796875,1.0068359375,1.06170654296875,-3.4991455078125,-1.727142333984375,1,1.0,1.0,2.0,1.0,35.00
2024-03-04 10:09:27.900,,,,,,,,,,,,,,,,,,,,,,,,,,,,,,,,,,,,,,/muse/elements/blink
2024-03-04 10:09:28.434,,,,,,,,,,,,,,,,,,,,,,,,,,,,,,,,,,,,,,/muse/elements/blink
2024-03-04 10:09:28.609,0.94888467,0.96087354,0.0,0.948259,0.8691382,0.46607056,0.0,0.78082067,0.8308421,0.58219665,0.0,0.7732668,0.7346306,0.68179053,0.0,0.8662198,0.6326863,0.21918978,0.0,0.5547937,768.3883,793.7729,466.1905,775.64105,928.7546,0.03643798828125,0.01373291015625,1.006591796875,1.42059326171875,-3.81317138671875,-1.1962890625,1,1.0,1.0,2.0,1.0,40.00
2024-03-04 10:09:28.712,,,,,,,,,,,,,,,,,,,,,,,,,,,,,,,,,,,,,,/muse/elements/blink
2024-03-04 10:09:29.626,0.81782347,1.0800537,0.0,0.95948774,0.8920561,0.7367084,0.0,0.7568962,0.8780499,0.8424253,0.0,0.45905513,0.81823516,0.51139593,0.0,0.8346176,0.77608454,0.47226518,0.0,0.52717,888.46155,832.4542,847.3626,871.13556,1138.2784,0.0400390625,0.01715087890625,1.0057373046875,1.951446533203125,-4.134674072265625,-1.218719482421875,1,1.0,1.0,2.0,1.0,40.00
2024-03-04 10:09:30.650,0.7881928,1.2639488,0.0,0.96447253,0.8772974,0.78558946,0.0,0.8030436,1.1916239,0.8740385,0.0,0.83947766,0.95556176,0.5919656,0.0,0.8579579,0.67755324,0.34973252,0.0,0.52244145,767.5824,830.4396,613.2601,767.5824,601.978,0.03765869140625,0.01141357421875,1.0028076171875,1.734619140625,-4.194488525390625,-1.016845703125,1,1.0,1.0,2.0,1.0,40.00
2024-03-04 10:09:30.860,,,,,,,,,,,,,,,,,,,,,,,,,,,,,,,,,,,,,,/muse/elements/blink
2024-03-04 10:09:31.655,0.7679369,1.0409026,0.0,0.87888914,0.789141,0.81955755,0.0,0.66084075,1.206168,1.1199385,0.0,0.85410196,0.93315095,0.5880341,0.0,0.7394404,0.56154716,0.30942386,0.0,0.39746103,798.60803,819.5604,761.13556,786.1172,723.663,0.04351806640625,0.00982666015625,1.00140380859375,1.757049560546875,-4.41131591796875,-1.278533935546875,1,1.0,1.0,2.0,1.0,40.00
2024-03-04 10:09:32.674,0.1015886,0.5534646,0.0,0.14629869,0.26678845,0.78345114,0.0,0.119365185,0.8010791,1.0279638,0.0,0.5169947,0.73791105,0.51860225,0.0,0.6476609,0.46754983,0.3658407,0.0,0.40809292,783.69965,802.23444,746.63007,795.38464,688.20514,0.04351806640625,0.01580810546875,1.0015869140625,2.370147705078125,-4.015045166015625,-1.831817626953125,1,1.0,1.0,2.0,1.0,40.00
2024-03-04 10:09:33.685,0.25339568,0.9792904,0.0,0.5407116,0.09519495,0.76385915,0.0,0.0371062,0.72271895,0.73756486,0.0,0.5210691,0.6227406,0.5821709,0.0,0.6493455,0.5054751,0.4527821,0.0,0.4244675,768.3883,846.1539,603.9927,754.68866,569.34064,0.03753662109375,0.01806640625,1.003173828125,2.295379638671875,-2.61688232421875,-1.577606201171875,1,1.0,1.0,2.0,1.0,40.00
2024-03-04 10:09:34.179,,,,,,,,,,,,,,,,,,,,,,,,,,,,,,,,,,,,,,/muse/elements/blink
2024-03-04 10:09:34.687,0.51317567,1.0899999,0.0,0.82589376,0.099709526,0.94394314,0.0,0.42489362,0.74966764,0.62161225,0.0,0.6591463,0.6269321,0.73867637,0.0,0.53419036,0.6075517,0.27995214,0.0,0.5005406,813.5165,818.7546,809.89014,803.44324,1010.54944,0.037841796875,0.0164794921875,0.99981689453125,1.622467041015625,-3.551483154296875,-1.114044189453125,1,1.0,1.0,2.0,1.0,40.00
2024-03-04 10:09:34.705,,,,,,,,,,,,,,,,,,,,,,,,,,,,,,,,,,,,,,/muse/elements/blink
2024-03-04 10:09:35.699,0.6331317,1.1273787,0.0,0.924062,0.25359672,1.0533736,0.0,0.86142844,0.44634753,0.59845454,0.0,0.54330844,0.5939628,0.78751034,0.0,0.7848907,0.65329653,0.2283138,0.0,0.45047805,781.685,862.27106,631.39197,757.50916,892.0879,0.042236328125,0.021484375,1.00433349609375,1.876678466796875,-4.007568359375,-1.248626708984375,1,1.0,1.0,2.0,1.0,40.00
2024-03-04 10:09:35.945,,,,,,,,,,,,,,,,,,,,,,,,,,,,,,,,,,,,,,/muse/elements/blink
2024-03-04 10:09:36.713,1.2830713,1.1273787,0.0,0.924062,0.9800118,1.0533736,0.0,0.86142844,1.0201426,0.59845454,0.0,0.54330844,1.0148991,0.78751034,0.0,0.7848907,0.45098108,0.2283138,0.0,0.45047805,856.63007,814.7253,998.46155,866.7033,857.03296,0.0418701171875,0.0245361328125,1.0042724609375,2.071075439453125,-4.1571044921875,-1.173858642578125,1,1.0,1.0,2.0,1.0,40.00
2024-03-04 10:09:37.139,,,,,,,,,,,,,,,,,,,,,,,,,,,,,,,,,,,,,,/muse/elements/blink
2024-03-04 10:09:37.736,1.303685,1.1273787,0.0,0.8728332,1.0507535,1.0533736,0.0,0.7136796,1.2107632,0.59845454,0.0,0.7057239,0.9501952,0.78751034,0.0,0.6547321,0.64249766,0.2283138,0.0,0.59637654,763.1502,826.8132,813.1135,759.12085,570.14655,0.03973388671875,0.0,1.00958251953125,0.964508056640625,-3.297271728515625,-2.190704345703125,1,1.0,1.0,2.0,1.0,40.00
2024-03-04 10:09:38.374,,,,,,,,,,,,,,,,,,,,,,,,,,,,,,,,,,,,,,/muse/elements/blink
2024-03-04 10:09:38.751,0.6557005,1.1273787,0.0,0.6379514,0.52348053,1.0533736,0.0,0.45057872,0.9685323,0.59845454,0.0,0.59417915,0.82374823,0.78751034,0.0,0.630633,0.6645123,0.2283138,0.0,0.45404473,879.59705,831.6484,830.84247,881.6117,1084.2858,0.04339599609375,0.01220703125,1.005126953125,1.89910888671875,-3.671112060546875,-1.966400146484375,1,1.0,1.0,2.0,1.0,40.00
2024-03-04 10:09:39.575,,,,,,,,,,,,,,,,,,,,,,,,,,,,,,,,,,,,,,/muse/elements/blink
2024-03-04 10:09:39.764,0.35361326,1.1273787,0.0,-0.10547992,0.4559177,1.0533736,0.0,0.4483805,0.6216209,0.59845454,0.0,0.3090569,0.78417736,0.78751034,0.0,0.6261022,0.4840491,0.2283138,0.0,0.45397308,875.56775,835.2747,875.9707,843.3333,902.96704,0.04083251953125,0.01715087890625,1.00347900390625,1.891632080078125,-3.69354248046875,-1.1962890625,1,1.0,1.0,2.0,1.0,40.00
2024-03-04 10:09:40.779,0.8102871,1.1273787,0.0,0.56067395,0.9803173,1.0533736,0.0,0.7117041,0.7650983,0.59845454,0.0,0.6572679,0.95171314,0.78751034,0.0,0.611898,0.46963444,0.2283138,0.0,0.6672669,857.8388,815.12823,1061.3187,863.8828,1014.9817,0.04046630859375,0.01568603515625,1.0047607421875,1.667327880859375,-4.0972900390625,-1.48040771484375,1,1.0,1.0,2.0,1.0,40.00
2024-03-04 10:09:41.785,0.5938099,0.76319057,0.0,0.6698059,0.6688741,0.23905796,0.0,0.6275245,0.45557836,0.5825491,0.0,0.75737613,0.772877,0.41760218,0.0,0.5135588,0.40945324,0.065297335,0.0,0.55479497,784.10254,812.71063,865.89746,788.93774,716.0073,0.04156494140625,0.01446533203125,1.00445556640625,1.136474609375,-3.521575927734375,-1.248626708984375,1,1.0,1.0,2.0,1.0,40.00
2024-03-04 10:09:42.794,0.842162,0.8516975,0.0,0.8726016,0.70936644,0.85587287,0.0,0.8459644,0.87777543,0.74920005,0.0,0.91115165,0.8576274,0.49609205,0.0,0.7091246,0.60619724,-0.0033649718,0.0,0.55996025,888.86444,817.1429,992.4176,864.68866,892.49084,0.03765869140625,0.01190185546875,1.00445556640625,1.353302001953125,-4.015045166015625,-1.18133544921875,1,1.0,1.0,2.0,1.0,40.00
2024-03-04 10:09:43.525,,,,,,,,,,,,,,,,,,,,,,,,,,,,,,,,,,,,,,/muse/elements/blink
2024-03-04 10:09:43.829,0.8285971,0.7288515,0.0,0.62235016,0.63396585,0.7888311,0.0,0.84822434,0.93073565,0.7266617,0.0,0.7646356,0.84960157,0.37757805,0.0,0.68762106,0.5781375,0.24137501,0.0,0.48229387,769.19415,833.663,717.619,757.9121,483.51648,0.03900146484375,0.0166015625,1.00390625,1.45050048828125,-4.029998779296875,-0.680389404296875,1,1.0,1.0,2.0,1.0,40.00
2024-03-04 10:09:44.644,,,,,,,,,,,,,,,,,,,,,,,,,,,,,,,,,,,,,,/muse/elements/blink
2024-03-04 10:09:44.842,0.8000426,0.42755303,0.0,0.5866572,0.26715422,0.19022171,0.0,0.39049438,0.8510249,0.6136813,0.0,0.70895296,0.6352499,0.5463745,0.0,0.6133066,0.46124938,0.25441915,0.0,0.45291746,828.8278,832.0513,994.83514,847.3626,926.337,0.041259765625,0.0159912109375,1.001953125,1.577606201171875,-3.820648193359375,-1.278533935546875,1,1.0,1.0,2.0,1.0,40.00
2024-03-04 10:09:45.856,,,,,,,,,,,,,,,,,,,,,,,,,,,,,,,,,,,,,,/muse/elements/blink
2024-03-04 10:09:45.858,1.0002694,0.64608425,0.0,1.2646415,0.5187397,0.49760547,0.0,0.5288457,0.9958303,0.73911846,0.0,0.9963991,0.7275594,0.5719406,0.0,0.7191622,0.42919174,0.28547683,0.0,0.5238366,747.8388,844.1392,672.49084,736.1539,545.56775,0.0631103515625,0.0142822265625,1.0137939453125,1.79443359375,-2.654266357421875,-0.7177734375,1,1.0,1.0,2.0,1.0,40.00
2024-03-04 10:09:46.095,,,,,,,,,,,,,,,,,,,,,,,,,,,,,,,,,,,,,,/muse/elements/blink
2024-03-04 10:09:46.562,,,,,,,,,,,,,,,,,,,,,,,,,,,,,,,,,,,,,,/muse/elements/blink
2024-03-04 10:09:46.861,1.0199814,0.5687402,0.0,1.0407152,0.7321207,0.6041832,0.0,0.6658359,1.003027,0.64621234,0.0,1.0475374,0.81851965,0.517423,0.0,0.72688884,0.3968936,0.38701946,0.0,0.5596449,886.4469,815.9341,959.7802,878.3883,1015.38464,0.01812744140625,0.03546142578125,1.00433349609375,-1.816864013671875,-0.10467529296875,-5.480499267578125,1,1.0,1.0,2.0,1.0,40.00
2024-03-04 10:09:47.180,,,,,,,,,,,,,,,,,,,,,,,,,,,,,,,,,,,,,,/muse/elements/blink
2024-03-04 10:09:47.872,0.9026563,0.62565106,0.0,1.05858,0.8611387,0.7084868,0.0,0.8746448,0.94888824,0.5925273,0.0,1.0170707,0.8336812,0.47750062,0.0,0.7413784,0.49799845,0.47667506,0.0,0.42133868,803.8461,807.0696,956.1539,813.1135,819.5604,0.01904296875,-0.0087890625,1.00775146484375,0.396270751953125,0.441131591796875,0.91217041015625,1,1.0,1.0,2.0,1.0,40.00
2024-03-04 10:09:48.307,,,,,,,,,,,,,,,,,,,,,,,,,,,,,,,,,,,,,,/muse/elements/blink
2024-03-04 10:09:48.875,0.48808363,0.8162775,0.0,0.5915577,0.37945142,0.24258462,0.0,0.54499155,0.89379054,0.6291347,0.0,0.61823994,0.7708193,0.35242158,0.0,0.54028815,0.5182458,0.455384,0.0,0.57895726,813.5165,830.0366,766.77655,811.50183,796.5934,0.03717041015625,-0.00933837890625,1.0067138671875,2.093505859375,-4.20196533203125,-1.428070068359375,1,1.0,1.0,2.0,1.0,40.00
2024-03-04 10:09:49.522,,,,,,,,,,,,,,,,,,,,,,,,,,,,,,,,,,,,,,/muse/elements/blink
2024-03-04 10:09:49.858,,,,,,,,,,,,,,,,,,,,,,,,,,,,,,,,,,,,,,/muse/elements/blink
2024-03-04 10:09:49.893,0.5908583,0.872933,0.0,0.6977085,0.5046984,0.37155473,0.0,0.64153665,0.739451,0.56220675,0.0,0.62027174,0.759242,0.41668382,0.0,0.8016789,0.5094044,0.51085055,0.0,0.5068222,952.9304,788.5348,901.3553,939.6337,1044.3956,0.03997802734375,-0.00128173828125,1.0052490234375,2.370147705078125,-4.44122314453125,-2.930908203125,1,1.0,1.0,2.0,1.0,40.00
2024-03-04 10:09:50.837,,,,,,,,,,,,,,,,,,,,,,,,,,,,,,,,,,,,,,/muse/elements/blink
2024-03-04 10:09:50.895,0.8841273,0.9231369,0.0,0.8184596,0.7429998,0.38218045,0.0,0.6945303,0.37045157,0.54664725,0.0,0.51984644,0.73704445,0.39113143,0.0,0.88378674,0.51832736,0.51539415,0.0,0.4461957,779.67035,813.5165,585.05493,767.5824,631.79486,0.0447998046875,0.016357421875,1.004638671875,1.98883056640625,-2.43743896484375,-0.216827392578125,1,1.0,1.0,2.0,1.0,40.00
2024-03-04 10:09:51.905,0.89014876,0.8525933,0.0,0.8473819,0.7916839,0.52471286,0.0,0.7331961,1.0387964,0.5702308,0.0,0.8099263,0.75505996,0.5547728,0.0,0.5610966,0.5459955,0.1898184,0.0,0.6023131,850.58606,827.619,831.2454,863.0769,1005.31134,0.041748046875,0.00732421875,1.007080078125,2.1533203125,-3.715972900390625,1.06170654296875,1,1.0,1.0,2.0,1.0,40.00
2024-03-04 10:09:51.956,,,,,,,,,,,,,,,,,,,,,,,,,,,,,,,,,,,,,,/muse/elements/blink
2024-03-04 10:09:52.187,,,,,,,,,,,,,,,,,,,,,,,,,,,,,,,,,,,,,,/muse/elements/blink
2024-03-04 10:09:52.919,0.8827781,0.7024255,0.0,0.9759408,0.7849501,0.4298474,0.0,0.87337935,1.145518,0.7336332,0.0,0.98087835,0.9842988,0.49419415,0.0,0.7055274,0.73337024,0.29324073,0.0,0.52166605,755.09155,829.6337,497.61905,765.16486,619.304,0.047119140625,0.00640869140625,1.00445556640625,2.1832275390625,-4.35150146484375,-1.114044189453125,1,1.0,1.0,2.0,1.0,40.00
2024-03-04 10:09:53.410,,,,,,,,,,,,,,,,,,,,,,,,,,,,,,,,,,,,,,/muse/elements/blink
2024-03-04 10:09:53.925,0.51666105,0.7858748,0.0,0.89643663,0.38028333,0.5797528,0.0,0.6106408,1.0537298,0.93327683,0.0,0.90014887,0.7266375,0.50577617,0.0,0.7251411,0.6917369,0.18441896,0.0,0.39778873,834.4689,814.3223,916.26373,830.0366,863.47986,0.0518798828125,0.0093994140625,1.0,1.92901611328125,-3.78326416015625,-1.016845703125,1,1.0,1.0,2.0,1.0,40.00
2024-03-04 10:09:54.704,,,,,,,,,,,,,,,,,,,,,,,,,,,,,,,,,,,,,,/muse/elements/blink
2024-03-04 10:09:54.947,0.6825827,0.43020198,0.0,0.7969183,0.277229,0.55347395,0.0,0.6220546,0.6724459,0.9423412,0.0,0.5649599,0.7258525,0.5460203,0.0,0.5960877,0.5077479,0.21648265,0.0,0.3930691,781.685,805.8608,788.93774,804.65204,807.8755,0.0577392578125,0.009033203125,1.0030517578125,1.4654541015625,-4.044952392578125,-1.435546875,1,1.0,1.0,2.0,1.0,40.00
2024-03-04 10:09:55.731,,,,,,,,,,,,,,,,,,,,,,,,,,,,,,,,,,,,,,/muse/elements/blink
2024-03-04 10:09:55.950,,,,,,,,,,,,,,,,,,,,,,,,,,,,,,,,,,,,,,/muse/elements/blink
2024-03-04 10:09:55.958,0.93848485,0.381014,0.0,1.0657599,0.69982696,0.35380387,0.0,0.84867454,1.1028247,0.6630071,0.0,0.22927488,0.76948273,0.39886057,0.0,0.5292178,0.46789497,0.25709993,0.0,0.31653112,899.7436,828.022,952.9304,868.315,1127.3993,0.053466796875,0.00390625,0.9989013671875,1.86920166015625,-4.074859619140625,-1.517791748046875,1,1.0,1.0,2.0,1.0,40.00
2024-03-04 10:09:56.965,0.9890299,0.5402733,0.0,1.0116718,0.83881783,0.33823043,0.0,0.9521086,1.1902399,0.5948944,0.0,0.93023086,0.7903245,0.406589,0.0,0.6675085,0.55692786,0.34232315,0.0,0.43262756,810.696,809.89014,1006.9231,835.2747,731.31866,0.0574951171875,0.0029296875,1.00103759765625,1.854248046875,-4.373931884765625,-1.51031494140625,1,1.0,1.0,2.0,1.0,40.00
2024-03-04 10:09:57.981,0.66334045,0.6908907,0.0,0.7966791,0.27343988,0.5342921,0.0,0.47265252,0.64791274,0.50457853,0.0,0.8610063,0.74161774,0.38358298,0.0,0.6561543,0.441558,0.37882915,0.0,0.44044703,809.89014,820.7692,773.6264,817.9487,641.06226,0.056396484375,8.544921875E-4,1.00555419921875,1.68975830078125,-4.14215087890625,-1.36077880859375,1,1.0,1.0,2.0,1.0,40.00
2024-03-04 10:09:58.313,,,,,,,,,,,,,,,,,,,,,,,,,,,,,,,,,,,,,,/muse/elements/blink
2024-03-04 10:09:58.993,0.67190677,0.7818495,0.0,0.6929343,0.41842473,0.49762928,0.0,0.6149324,0.7060724,0.49706548,0.0,0.80497915,0.845399,0.5375038,0.0,0.6676052,0.4229517,0.43784857,0.0,0.38164464,854.61536,816.7399,854.21246,885.64105,1124.1758,0.06085205078125,9.1552734375E-4,1.0054931640625,1.45050048828125,-4.18701171875,-1.173858642578125,1,1.0,1.0,2.0,1.0,40.00
2024-03-04 10:09:59.612,,,,,,,,,,,,,,,,,,,,,,,,,,,,,,,,,,,,,,/muse/elements/blink
2024-03-04 10:10:00.017,0.5477585,0.7467586,0.0,0.6777338,0.75117755,0.512039,0.0,0.7494321,0.7194646,0.45143086,0.0,0.5052442,0.8554976,0.34599447,0.0,0.6492572,0.48790234,0.21879797,0.0,0.25791153,871.53845,818.3516,910.6227,866.30035,1036.7399,0.0626220703125,-0.0029296875,1.00396728515625,1.6448974609375,-4.486083984375,-0.934600830078125,1,1.0,1.0,2.0,1.0,35.00
2024-03-04 10:10:00.836,,,,,,,,,,,,,,,,,,,,,,,,,,,,,,,,,,,,,,/muse/elements/blink
2024-03-04 10:10:01.018,,,,,,,,,,,,,,,,,,,,,,,,,,,,,,,,,,,,,,/muse/elements/blink
2024-03-04 10:10:01.037,0.61717224,0.89506835,0.0,0.78053594,0.66903406,0.7089898,0.0,0.5479093,0.803246,0.7387144,0.0,0.71583956,0.77686894,0.4167786,0.0,0.5844648,0.6042497,0.3387473,0.0,0.29626718,799.81683,807.0696,737.3626,817.5458,861.06226,0.05767822265625,3.0517578125E-4,1.00360107421875,1.876678466796875,-4.47113037109375,-1.039276123046875,1,1.0,1.0,1.0,1.0,35.00
2024-03-04 10:10:02.049,0.9598932,0.8794661,0.0,0.97927344,0.65477735,0.6303933,0.0,0.60895675,0.68832695,0.7376576,0.0,0.8159766,0.8910558,0.5190634,0.0,0.6639197,0.6361307,0.457184,0.0,0.3444976,832.0513,817.5458,697.0696,813.91943,857.8388,0.06658935546875,1.8310546875E-4,1.00567626953125,2.250518798828125,-3.446807861328125,-1.742095947265625,1,1.0,1.0,2.0,1.0,35.00
2024-03-04 10:10:02.246,,,,,,,,,,,,,,,,,,,,,,,,,,,,,,,,,,,,,,/muse/elements/blink
2024-03-04 10:10:02.722,,,,,,,,,,,,,,,,,,,,,,,,,,,,,,,,,,,,,,/muse/elements/blink
2024-03-04 10:10:03.055,1.0534856,0.7984752,0.0,1.1515278,0.6527771,0.5587513,0.0,0.6536547,0.5975602,0.5987912,0.0,0.60444236,0.94213706,0.6067748,0.0,0.7597124,0.46023795,0.4606328,0.0,0.3740366,923.5165,772.4176,832.4542,921.9048,900.9524,0.09161376953125,-0.01934814453125,0.9921875,-0.874786376953125,-1.428070068359375,0.590667724609375,1,1.0,1.0,2.0,1.0,35.00
2024-03-04 10:10:03.168,,,,,,,,,,,,,,,,,,,,,,,,,,,,,,,,,,,,,,/muse/elements/blink
2024-03-04 10:10:03.559,,,,,,,,,,,,,,,,,,,,,,,,,,,,,,,,,,,,,,/muse/elements/blink
2024-03-04 10:10:04.071,0.96944994,0.7927816,0.0,1.1339945,0.69650066,0.7314121,0.0,0.68523955,0.532434,0.57485,0.0,0.53490126,0.9319738,0.59107184,0.0,0.9105957,0.45130575,0.55471826,0.0,0.31665623,762.74725,809.4872,626.9597,766.77655,506.48352,0.06817626953125,6.103515625E-5,1.00146484375,2.22808837890625,-3.9178466796875,-1.457977294921875,1,1.0,1.0,2.0,1.0,35.00
2024-03-04 10:10:04.651,,,,,,,,,,,,,,,,,,,,,,,,,,,,,,,,,,,,,,/muse/elements/blink
2024-03-04 10:10:05.084,0.96944994,1.2576846,0.0,1.1339945,0.69650066,0.7707121,0.0,0.68523955,0.532434,1.0265921,0.0,0.53490126,0.9319738,0.86537635,0.0,0.9105957,0.45130575,0.41000268,0.0,0.31665623,859.45056,823.1868,822.381,841.7216,902.5641,0.0635986328125,-0.0015869140625,0.9993896484375,2.03369140625,-2.220611572265625,-0.171966552734375,1,1.0,1.0,2.0,1.0,35.00
2024-03-04 10:10:05.883,,,,,,,,,,,,,,,,,,,,,,,,,,,,,,,,,,,,,,/muse/elements/blink
2024-03-04 10:10:06.050,,,,,,,,,,,,,,,,,,,,,,,,,,,,,,,,,,,,,,/muse/elements/blink
2024-03-04 10:10:06.093,1.1111726,1.1074554,0.0,1.1802886,0.9224266,0.70291233,0.0,1.1250659,1.1845397,1.037554,0.0,1.2314343,0.88189596,0.64308304,0.0,0.7490735,0.6964378,0.3572887,0.0,0.49539965,788.93774,817.1429,413.8095,792.1612,697.47253,0.06207275390625,0.0023193359375,1.01080322265625,1.42059326171875,-4.08233642578125,1.4056396484375,1,1.0,1.0,2.0,1.0,35.00
2024-03-04 10:10:07.106,,,,,,,,,,,,,,,,,,,,,,,,,,,,,,,,,,,,,,/muse/elements/blink
2024-03-04 10:10:07.120,1.193053,1.0318271,0.0,1.083498,1.0303036,0.66806656,0.0,1.0592955,1.116661,0.8363337,0.0,0.99778193,0.9710642,0.5159484,0.0,0.7262436,0.6736418,0.4252627,0.0,0.28005275,853.8095,810.293,929.5604,848.1685,936.4103,0.0792236328125,-0.008056640625,1.00347900390625,2.325286865234375,-4.486083984375,-1.30096435546875,1,1.0,1.0,2.0,1.0,35.00
2024-03-04 10:10:07.274,,,,,,,,,,,,,,,,,,,,,,,,,,,,,,,,,,,,,,/muse/elements/blink
2024-03-04 10:10:08.126,1.1700093,0.9756035,0.0,1.0840088,0.8869134,0.87154806,0.0,0.9216042,1.1499938,0.76371366,0.0,0.86533964,0.6762844,0.49234506,0.0,0.62576467,0.44913054,0.46097627,0.0,0.27647698,790.54944,831.2454,470.2198,795.38464,941.2454,0.07794189453125,-0.0067138671875,1.00164794921875,1.614990234375,-3.925323486328125,-1.21124267578125,1,1.0,1.0,2.0,1.0,35.00
2024-03-04 10:10:08.421,,,,,,,,,,,,,,,,,,,,,,,,,,,,,,,,,,,,,,/muse/elements/blink
2024-03-04 10:10:09.142,0.9553826,0.86290073,0.0,0.87520015,0.5761883,0.68112105,0.0,0.7095634,1.0783712,0.62385136,0.0,0.9701674,0.5603464,0.4957983,0.0,0.7026167,0.47997835,0.5534547,0.0,0.38518775,869.5238,831.2454,887.6557,859.0476,958.5714,0.071533203125,-7.32421875E-4,1.00213623046875,1.622467041015625,-4.179534912109375,-1.0467529296875,1,1.0,1.0,2.0,1.0,35.00
2024-03-04 10:10:09.727,,,,,,,,,,,,,,,,,,,,,,,,,,,,,,,,,,,,,,/muse/elements/blink
2024-03-04 10:10:10.154,0.6839519,0.71998,0.0,0.66381264,0.26778316,0.42787758,0.0,0.18999325,0.8334202,0.77478504,0.0,0.64723307,0.5727643,0.55398077,0.0,0.57792974,0.28228188,0.5340102,0.0,0.4170787,764.7619,796.1905,638.24176,756.30035,482.30768,0.07470703125,-0.0087890625,1.0018310546875,1.12152099609375,-3.84307861328125,-1.682281494140625,1,1.0,1.0,2.0,1.0,40.00
2024-03-04 10:10:11.168,0.5434609,0.8405618,0.0,0.87752557,0.38756564,0.641589,0.0,0.3968997,0.83792734,0.7567193,0.0,0.7139203,0.74085295,0.47360048,0.0,0.55501413,0.41362405,0.49089628,0.0,0.37167913,809.89014,817.1429,554.83514,786.1172,877.5824,0.07452392578125,-0.008056640625,1.0023193359375,2.355194091796875,-3.828125,-1.158905029296875,1,1.0,1.0,2.0,1.0,40.00
2024-03-04 10:10:12.189,0.5305311,1.1748741,0.0,0.72607154,0.5864878,1.0681101,0.0,0.590356,0.59974736,0.6306189,0.0,0.6971421,0.8009733,0.72519445,0.0,0.54753536,0.50791407,0.5405133,0.0,0.32392436,778.86444,788.93774,554.83514,776.8498,879.19415,0.076416015625,-0.00238037109375,1.00396728515625,1.891632080078125,-3.656158447265625,-0.897216796875,1,1.0,1.0,2.0,1.0,40.00
2024-03-04 10:10:12.312,,,,,,,,,,,,,,,,,,,,,,,,,,,,,,,,,,,,,,/muse/elements/blink
2024-03-04 10:10:13.207,0.36746496,0.70185745,0.0,0.47958514,0.4182559,0.31766367,0.0,0.45589578,0.42134574,0.37533492,0.0,0.5057753,0.6470166,0.55266875,0.0,0.5276261,0.4660719,0.6420721,0.0,0.36445937,898.93774,829.2308,759.92676,891.28204,1053.2601,0.07452392578125,-0.00555419921875,1.00225830078125,1.727142333984375,-3.850555419921875,-0.964508056640625,1,1.0,1.0,2.0,1.0,40.00
2024-03-04 10:10:14.127,,,,,,,,,,,,,,,,,,,,,,,,,,,,,,,,,,,,,,/muse/elements/blink
2024-03-04 10:10:14.226,0.42967197,0.4634154,0.0,0.39531392,0.58020043,0.4193988,0.0,0.5453486,0.7455567,0.7282557,0.0,0.60129,0.79243386,0.67273706,0.0,0.57400113,0.5105708,0.5410587,0.0,0.33491638,844.5421,805.8608,961.79486,836.4835,915.4579,0.0799560546875,-0.0029296875,1.000244140625,2.04864501953125,-3.7982177734375,-0.889739990234375,1,1.0,1.0,2.0,1.0,40.00
2024-03-04 10:10:15.234,0.6212929,0.43926266,0.0,0.4779591,0.4547307,0.47660992,0.0,0.5050138,0.71469265,0.7006885,0.0,0.43804765,0.85249895,0.70100087,0.0,0.676552,0.53772885,0.20837751,0.0,0.23920532,798.20514,822.7839,589.0842,805.05493,916.6667,0.07659912109375,-0.0069580078125,1.00408935546875,2.280426025390625,-4.523468017578125,-1.24114990234375,1,1.0,1.0,2.0,1.0,40.00
2024-03-04 10:10:15.973,,,,,,,,,,,,,,,,,,,,,,,,,,,,,,,,,,,,,,/muse/elements/blink
2024-03-04 10:10:16.251,0.8361583,0.7590482,0.0,0.75251454,0.5302258,0.5860832,0.0,0.5004565,0.8533116,0.31616625,0.0,0.9968927,0.8195382,0.5250778,0.0,0.6545348,0.49487984,0.43893963,0.0,0.37166712,760.7326,793.7729,799.41394,780.07324,691.4286,0.07818603515625,0.00421142578125,1.00079345703125,1.906585693359375,-3.730926513671875,-1.607513427734375,1,1.0,1.0,2.0,1.0,40.00
2024-03-04 10:10:17.163,,,,,,,,,,,,,,,,,,,,,,,,,,,,,,,,,,,,,,/muse/elements/blink
2024-03-04 10:10:17.271,0.9024722,0.7389519,0.0,1.2518463,0.65411454,0.7039779,0.0,0.93816245,0.849256,0.6602328,0.0,1.240367,0.7776182,0.5572764,0.0,0.7801607,0.5534954,0.38411045,0.0,0.28613842,757.1062,826.0073,613.663,765.16486,472.63736,0.08355712890625,-0.0035400390625,1.001220703125,0.814971923828125,-4.5159912109375,0.874786376953125,1,1.0,1.0,2.0,1.0,40.00
2024-03-04 10:10:18.278,1.0730394,0.6394575,0.0,1.494611,0.7509825,0.6953534,0.0,1.2117132,0.7721443,0.6141808,0.0,1.2379148,0.801679,0.65842307,0.0,0.87977564,0.5744509,0.38015106,0.0,0.5289253,823.1868,814.7253,915.4579,845.7509,917.8755,0.07830810546875,-0.01092529296875,1.00677490234375,2.400054931640625,-4.3365478515625,-1.487884521484375,1,1.0,1.0,2.0,1.0,40.00
2024-03-04 10:10:18.473,,,,,,,,,,,,,,,,,,,,,,,,,,,,,,,,,,,,,,/muse/elements/blink
2024-03-04 10:10:19.286,1.1548193,0.21101575,0.0,1.1682444,0.8109294,0.31707683,0.0,0.92854965,1.0466076,0.6515885,0.0,1.0830612,0.7558617,0.61451346,0.0,0.7250542,0.485079,0.49120948,0.0,0.3777311,778.46155,807.47253,716.8132,784.5055,581.8315,0.07781982421875,-0.01141357421875,1.00286865234375,1.801910400390625,-3.6785888671875,-1.614990234375,1,1.0,1.0,2.0,1.0,40.00
2024-03-04 10:10:20.301,0.7016161,0.7656515,0.0,0.52759504,0.47035527,0.17593913,0.0,0.5191047,0.8947403,0.65953594,0.0,0.54996186,0.7346267,0.6449187,0.0,0.63616157,0.40469444,0.47483584,0.0,0.2854951,887.6557,834.0659,1070.586,885.64105,923.5165,0.081298828125,-0.00634765625,0.999755859375,1.51031494140625,-3.730926513671875,-1.27105712890625,1,1.0,1.0,2.0,1.0,40.00
2024-03-04 10:10:21.010,,,,,,,,,,,,,,,,,,,,,,,,,,,,,,,,,,,,,,/muse/elements/blink
2024-03-04 10:10:21.327,0.7064451,0.7902546,0.0,0.47122353,0.29453614,0.22418424,0.0,0.38477758,0.9296418,0.39208195,0.0,0.51317227,0.64616096,0.52645546,0.0,0.5968567,0.41649523,0.4646962,0.0,0.39614564,761.13556,810.293,479.48718,764.7619,453.69965,0.0845947265625,-0.006103515625,1.0050048828125,2.609405517578125,-3.94775390625,-3.1402587890625,1,1.0,1.0,2.0,1.0,40.00
2024-03-04 10:10:22.227,,,,,,,,,,,,,,,,,,,,,,,,,,,,,,,,,,,,,,/muse/elements/blink
2024-03-04 10:10:22.331,0.39819157,0.68865794,0.0,0.46724147,0.21645072,-0.14872348,0.0,0.43183947,0.7964296,0.27108344,0.0,0.28863585,0.46165904,0.51220995,0.0,0.45447633,0.28966492,0.22354713,0.0,0.12912536,828.022,829.2308,612.4542,822.7839,944.0659,0.07513427734375,-0.00927734375,1.0025634765625,2.19818115234375,-3.63372802734375,-0.31402587890625,1,1.0,1.0,2.0,1.0,40.00
2024-03-04 10:10:23.348,0.61956537,0.27063903,0.0,0.6598887,0.38835302,0.40190023,0.0,0.5037927,0.5279017,0.54589397,0.0,0.602401,0.7406921,0.5851983,0.0,0.6221464,0.38171023,0.5330669,0.0,0.25685707,801.02563,830.84247,545.56775,787.326,614.4689,0.083740234375,-0.00494384765625,1.00262451171875,1.54022216796875,-4.53094482421875,-0.7177734375,1,1.0,1.0,2.0,1.0,40.00
2024-03-04 10:10:24.352,0.7710342,0.260753,0.0,0.70538855,0.27518982,0.07843803,0.0,0.38632783,0.6549965,0.62435955,0.0,0.8845279,0.6636736,0.54714775,0.0,0.6167069,0.48155892,0.35607058,0.0,0.21684101,884.43225,826.4103,1038.3517,881.2088,1037.5458,0.07891845703125,-0.00823974609375,1.00286865234375,1.054229736328125,-3.925323486328125,-1.727142333984375,1,1.0,1.0,2.0,1.0,40.00
2024-03-04 10:10:24.766,,,,,,,,,,,,,,,,,,,,,,,,,,,,,,,,,,,,,,/muse/elements/blink
2024-03-04 10:10:25.374,0.9602038,-0.013488649,0.0,0.4875554,0.1753388,-0.014225899,0.0,0.46427324,0.6609164,0.55569965,0.0,0.8878776,0.64077103,0.47786275,0.0,0.6853133,0.61991745,0.45478162,0.0,0.41622356,765.16486,823.9927,531.4652,759.5238,664.0293,0.0797119140625,-0.010986328125,1.00238037109375,1.6748046875,-3.611297607421875,-2.160797119140625,1,1.0,1.0,2.0,1.0,40.00
2024-03-04 10:10:25.887,,,,,,,,,,,,,,,,,,,,,,,,,,,,,,,,,,,,,,/muse/elements/blink
2024-03-04 10:10:26.164,,,,,,,,,,,,,,,,,,,,,,,,,,,,,,,,,,,,,,/muse/elements/blink
2024-03-04 10:10:26.389,0.99560165,0.17886621,0.0,0.48355836,0.12527817,0.010910313,0.0,0.41108733,0.6581133,0.4544551,0.0,0.8828701,0.59541273,0.45143706,0.0,0.66820335,0.55250186,0.39224792,0.0,0.35686764,885.2381,780.4762,487.14285,859.0476,732.52747,0.08209228515625,-0.00537109375,1.002685546875,1.734619140625,-3.701019287109375,-0.85235595703125,1,1.0,1.0,2.0,1.0,40.00
2024-03-04 10:10:26.408,,,,,,,,,,,,,,,,,,,,,,,,,,,,,,,,,,,,,,/muse/elements/blink
2024-03-04 10:10:27.402,0.99560165,0.17886621,0.0,0.48355836,0.12527817,0.010910313,0.0,0.41108733,0.6581133,0.4544551,0.0,0.8828701,0.59541273,0.45143706,0.0,0.66820335,0.55250186,0.39224792,0.0,0.35686764,769.59705,809.0842,789.34064,767.1795,582.6374,0.08062744140625,-0.00592041015625,1.00897216796875,1.435546875,-3.51409912109375,-0.874786376953125,1,2.0,1.0,2.0,2.0,40.00
2024-03-04 10:10:28.423,,,,,,,,,,,,,,,,,,,,,,,,,,,,,,,,,,,,,,/muse/elements/blink
2024-03-04 10:10:28.426,0.84124553,0.63835084,0.0,0.97214264,0.26488024,0.8190672,0.0,0.5707003,0.38640824,0.6343839,0.0,0.7222035,0.6866739,0.62222457,0.0,0.54560834,0.5710932,0.6100054,0.0,0.46805176,888.0586,840.10986,1036.337,868.71796,1007.326,0.080810546875,-0.01763916015625,1.0008544921875,1.861724853515625,-4.0972900390625,-1.158905029296875,1,1.0,1.0,2.0,1.0,40.00
2024-03-04 10:10:28.605,,,,,,,,,,,,,,,,,,,,,,,,,,,,,,,,,,,,,,/muse/elements/blink
2024-03-04 10:10:29.432,1.0738522,0.8346386,0.0,1.0583223,0.73656857,0.88130933,0.0,0.78730977,0.93078387,0.6415929,0.0,0.7912427,0.75199187,0.48790872,0.0,0.4822888,0.525524,0.47163403,0.0,0.47777542,777.25275,806.6667,563.2967,789.7436,588.68134,0.08001708984375,-0.00860595703125,1.00225830078125,1.71966552734375,-4.015045166015625,-0.755157470703125,1,1.0,1.0,2.0,1.0,40.00
2024-03-04 10:10:29.975,,,,,,,,,,,,,,,,,,,,,,,,,,,,,,,,,,,,,,/muse/elements/blink
2024-03-04 10:10:30.449,1.2165729,0.7672339,0.0,1.0036887,1.2773772,0.59493643,0.0,1.0773026,1.400676,0.50912195,0.0,1.1981547,0.9765874,0.48188424,0.0,0.9433036,0.71472096,0.22417161,0.0,0.58767956,803.8461,815.12823,828.022,800.2198,711.978,0.0699462890625,-0.005126953125,1.00244140625,1.79443359375,-6.26556396484375,-4.0673828125,1,1.0,1.0,2.0,1.0,40.00
2024-03-04 10:10:30.764,,,,,,,,,,,,,,,,,,,,,,,,,,,,,,,,,,,,,,/muse/elements/blink
2024-03-04 10:10:31.192,,,,,,,,,,,,,,,,,,,,,,,,,,,,,,,,,,,,,,/muse/elements/blink
2024-03-04 10:10:31.467,0.8453909,0.4824309,0.0,0.60638016,0.8939928,0.49895915,0.0,0.62802577,1.1593862,0.48279914,0.0,0.9046412,0.9273256,0.4935871,0.0,0.95507276,0.67973226,0.2749695,0.0,0.44751117,894.10254,839.707,1027.8755,882.8205,997.6557,0.0560302734375,-0.007568359375,0.982421875,2.654266357421875,-6.74407958984375,-2.459869384765625,1,1.0,1.0,2.0,1.0,40.00
2024-03-04 10:10:32.269,,,,,,,,,,,,,,,,,,,,,,,,,,,,,,,,,,,,,,/muse/elements/blink
2024-03-04 10:10:32.481,0.8805797,1.1447308,0.0,0.49376157,0.66394717,0.84488505,0.0,0.41710454,0.6742816,0.3013494,0.0,0.20287749,0.87900126,0.6586398,0.0,0.93760985,0.6126434,0.46659964,0.0,0.2590694,772.01465,818.3516,588.68134,765.9707,604.7985,0.07379150390625,-0.01251220703125,0.99383544921875,1.846771240234375,-5.9515380859375,0.25421142578125,1,1.0,1.0,1.0,1.0,40.00
2024-03-04 10:10:33.487,0.5484881,1.0549059,0.0,0.92254627,-0.0015415907,0.63810915,0.0,0.68687356,0.7880951,0.8622909,0.0,0.75414383,0.6287195,0.71301514,0.0,0.5167365,0.4620357,0.4721041,0.0,0.40715185,814.3223,809.0842,876.3736,797.3993,887.25275,0.09283447265625,-0.0086669921875,1.00189208984375,2.25799560546875,-4.104766845703125,-0.82244873046875,1,1.0,1.0,2.0,1.0,40.00
2024-03-04 10:10:33.735,,,,,,,,,,,,,,,,,,,,,,,,,,,,,,,,,,,,,,/muse/elements/blink
2024-03-04 10:10:34.492,0.8081512,0.86944187,0.0,0.8682888,0.62165636,0.37326163,0.0,0.7581087,1.1030154,0.82346374,0.0,0.97694016,0.8745062,0.87561935,0.0,0.733385,0.45043987,0.46047074,0.0,0.3550366,793.36993,826.4103,808.2784,796.1905,725.6777,0.07696533203125,-0.0123291015625,0.9947509765625,2.1832275390625,-2.7813720703125,-1.77947998046875,1,1.0,1.0,2.0,1.0,40.00
2024-03-04 10:10:35.027,,,,,,,,,,,,,,,,,,,,,,,,,,,,,,,,,,,,,,/muse/elements/blink
2024-03-04 10:10:35.505,0.9782074,0.50119734,0.0,0.9743633,0.8110347,0.5122898,0.0,0.80524087,1.1149906,0.7894904,0.0,1.0044371,0.89739865,0.8726111,0.0,0.731085,0.4820538,0.4339614,0.0,0.42746824,862.674,817.9487,916.6667,856.2271,1056.0806,0.09088134765625,-0.00164794921875,1.004638671875,3.289794921875,-5.226287841796875,-1.3458251953125,1,1.0,1.0,2.0,1.0,40.00
2024-03-04 10:10:36.344,,,,,,,,,,,,,,,,,,,,,,,,,,,,,,,,,,,,,,/muse/elements/blink
2024-03-04 10:10:36.520,0.77621114,0.9236635,0.0,0.5832833,0.79458946,0.6656969,0.0,0.8780903,0.8300225,0.8033979,0.0,1.1057338,0.8389463,0.69704455,0.0,0.61436784,0.5476542,0.49387544,0.0,0.44750917,828.022,815.9341,846.9597,828.4249,751.4652,0.085693359375,-0.00445556640625,1.00250244140625,1.95892333984375,-4.08233642578125,-1.368255615234375,1,1.0,1.0,2.0,1.0,40.00
2024-03-04 10:10:37.521,0.3146256,0.5851002,0.0,0.3708821,0.43732983,0.5535074,0.0,0.53961635,0.79363173,0.5174039,0.0,0.87705886,0.750187,0.52985275,0.0,0.5041496,0.4549719,0.44028226,0.0,0.33483583,809.0842,817.9487,775.2381,808.2784,682.1612,0.0867919921875,-0.01019287109375,1.002197265625,1.413116455078125,-4.179534912109375,-1.607513427734375,1,1.0,1.0,2.0,1.0,40.00
2024-03-04 10:10:38.005,,,,,,,,,,,,,,,,,,,,,,,,,,,,,,,,,,,,,,/muse/elements/blink
2024-03-04 10:10:38.250,,,,,,,,,,,,,,,,,,,,,,,,,,,,,,,,,,,,,,/muse/elements/blink
2024-03-04 10:10:38.530,0.268349,0.24205622,0.0,0.48221833,0.34069696,0.40551972,0.0,0.39000416,0.73003834,0.37644893,0.0,0.651607,0.5987526,0.5192706,0.0,0.37879246,0.42194206,0.3729007,0.0,0.18042488,878.7912,801.8315,1041.978,864.2857,1083.0769,0.09320068359375,-0.01080322265625,1.0023193359375,1.457977294921875,-3.910369873046875,-1.06170654296875,1,1.0,1.0,2.0,1.0,40.00
2024-03-04 10:10:38.873,,,,,,,,,,,,,,,,,,,,,,,,,,,,,,,,,,,,,,/muse/elements/blink
2024-03-04 10:10:39.542,0.34150708,0.39113376,0.0,0.3842385,0.20955175,0.07794347,0.0,0.29320097,0.608072,-0.001285759,0.0,0.6077297,0.53377134,0.43378186,0.0,0.3746043,0.3444681,0.43448213,0.0,0.12641202,763.95605,811.0989,491.17215,773.22345,769.19415,0.09161376953125,-0.0098876953125,1.00299072265625,1.80938720703125,-3.880462646484375,-1.353302001953125,1,1.0,1.0,2.0,1.0,40.00
2024-03-04 10:10:40.101,,,,,,,,,,,,,,,,,,,,,,,,,,,,,,,,,,,,,,/muse/elements/blink
2024-03-04 10:10:40.546,1.0729326,0.74688643,0.0,0.3842385,0.85965294,0.69671905,0.0,0.29320097,0.82399064,0.83404326,0.0,0.6077297,0.7841478,0.6302506,0.0,0.3746043,0.6736267,0.63881356,0.0,0.12641202,820.7692,830.0366,903.36993,816.7399,714.3956,0.08721923828125,-0.00775146484375,1.00177001953125,1.532745361328125,-4.14215087890625,-1.06170654296875,1,1.0,1.0,2.0,1.0,40.00
2024-03-04 10:10:41.322,,,,,,,,,,,,,,,,,,,,,,,,,,,,,,,,,,,,,,/muse/elements/blink
2024-03-04 10:10:41.552,1.1216428,0.6117146,0.0,0.3842385,0.960045,0.69268763,0.0,0.29320097,0.7431411,0.83718544,0.0,0.6077297,0.73108274,0.6333503,0.0,0.3746043,0.7609424,0.64463353,0.0,0.12641202,879.19415,819.5604,973.8828,883.6264,1091.1355,0.08978271484375,-0.00762939453125,1.00103759765625,1.428070068359375,-4.007568359375,-1.21124267578125,1,1.0,1.0,2.0,1.0,40.00
2024-03-04 10:10:42.553,1.1216428,0.7369441,0.0,0.3842385,0.960045,0.4516968,0.0,0.29320097,0.7431411,0.53320223,0.0,0.6077297,0.73108274,0.73543435,0.0,0.3746043,0.7609424,0.57067627,0.0,0.12641202,760.32965,814.7253,491.97803,763.95605,567.72894,0.08856201171875,-0.011962890625,1.00579833984375,2.22808837890625,-5.36834716796875,-1.622467041015625,1,1.0,1.0,2.0,1.0,40.00
2024-03-04 10:10:42.756,,,,,,,,,,,,,,,,,,,,,,,,,,,,,,,,,,,,,,/muse/elements/blink
2024-03-04 10:10:43.570,1.1535623,0.78999746,0.0,0.9887662,0.51248723,0.50313574,0.0,0.55922765,0.81974876,0.83351016,0.0,0.70969164,0.79734015,0.6832354,0.0,0.3811719,0.558126,0.50249475,0.0,0.50547826,828.022,803.0403,922.71063,827.619,942.4542,0.0830078125,-0.01275634765625,0.9925537109375,3.27484130859375,-1.293487548828125,0.456085205078125,1,1.0,1.0,2.0,1.0,40.00
2024-03-04 10:10:44.583,0.9817883,0.7400313,0.0,0.7697843,0.59019405,0.44825873,0.0,0.46454933,0.74576545,0.53731596,0.0,0.84325963,0.9330784,0.6005381,0.0,0.56586903,0.5676058,0.38282153,0.0,0.5463086,803.0403,823.5897,803.0403,782.49084,599.5604,0.15203857421875,-0.06787109375,1.00189208984375,-2.1234130859375,-2.73651123046875,-7.29736328125,1,1.0,1.0,2.0,1.0,40.00
2024-03-04 10:10:45.279,,,,,,,,,,,,,,,,,,,,,,,,,,,,,,,,,,,,,,/muse/elements/blink
2024-03-04 10:10:45.597,0.8814989,0.8167844,0.0,0.5848521,0.4864531,0.6698519,0.0,0.27487156,0.65849864,0.8072929,0.0,0.53931516,1.0455285,0.52214724,0.0,0.7433375,0.6265977,0.09063074,0.0,0.6412466,878.3883,835.2747,1047.619,882.4176,978.71796,0.07330322265625,-0.07586669921875,1.00579833984375,3.312225341796875,-4.074859619140625,-5.001983642578125,1,1.0,1.0,2.0,1.0,40.00
2024-03-04 10:10:46.618,1.1765755,0.96334726,0.0,0.937048,0.29244927,0.8670537,0.0,1.1240222,0.8470592,0.8940102,0.0,1.1535709,0.7855589,0.60262924,0.0,0.7736689,0.42411685,0.1843448,0.0,0.78353256,819.9634,840.9158,929.9634,825.6044,936.0073,0.069580078125,-0.07305908203125,0.99542236328125,1.801910400390625,-4.20196533203125,-0.31402587890625,1,1.0,1.0,2.0,1.0,40.00
2024-03-04 10:10:47.214,,,,,,,,,,,,,,,,,,,,,,,,,,,,,,,,,,,,,,/muse/elements/blink
2024-03-04 10:10:47.628,1.2319223,1.135626,0.0,0.7589448,0.43135777,0.9942633,0.0,0.9184548,0.85464686,0.79611605,0.0,0.89880323,0.7763094,0.7852628,0.0,0.710208,0.49416217,0.34415168,0.0,0.6252122,815.9341,814.7253,726.08057,825.2015,732.9304,0.0728759765625,-0.070068359375,1.01220703125,1.83929443359375,-4.05242919921875,-2.392578125,1,1.0,1.0,2.0,1.0,40.00
2024-03-04 10:10:48.001,,,,,,,,,,,,,,,,,,,,,,,,,,,,,,,,,,,,,,/muse/elements/blink
2024-03-04 10:10:48.633,0.9841036,1.1470542,0.0,0.7589448,0.6839582,1.038517,0.0,0.9184548,0.7157586,0.79611605,0.0,0.89880323,0.782217,0.7883049,0.0,0.710208,0.64275414,0.3678649,0.0,0.6252122,790.14655,819.5604,544.35895,807.47253,844.5421,0.0634765625,-0.07861328125,1.00262451171875,2.52716064453125,-3.985137939453125,-0.91217041015625,1,1.0,1.0,2.0,1.0,40.00
2024-03-04 10:10:49.647,1.0270436,0.85991967,0.0,1.0952833,0.7767215,0.8392951,0.0,0.8914413,1.1332061,0.80798584,0.0,0.9391366,0.7315879,0.5740809,0.0,0.547961,0.43268007,0.17138146,0.0,0.20839192,772.4176,815.9341,595.12823,761.9414,560.4762,0.06982421875,-0.09490966796875,0.995849609375,2.385101318359375,-3.94775390625,-1.831817626953125,1,1.0,1.0,2.0,1.0,40.00
2024-03-04 10:10:50.427,,,,,,,,,,,,,,,,,,,,,,,,,,,,,,,,,,,,,,/muse/elements/blink
2024-03-04 10:10:50.654,0.87145483,0.9221984,0.0,0.9233436,0.09352316,0.78588235,0.0,0.39598817,0.08031101,0.86873215,0.0,0.4012772,0.6895946,0.58184224,0.0,0.5014283,0.254397,0.32361743,0.0,0.12730876,826.4103,829.2308,967.03296,850.989,855.42126,0.07373046875,-0.09033203125,1.000244140625,1.742095947265625,-4.463653564453125,-0.964508056640625,1,1.0,1.0,2.0,1.0,40.00
2024-03-04 10:10:51.666,1.2741939,0.96487856,0.0,1.1046115,0.85607845,0.85299605,0.0,0.5390717,0.80616134,0.9953681,0.0,0.70920426,0.61452746,0.74540687,0.0,0.5458163,0.5005452,0.43368295,0.0,0.12194398,778.0586,821.1722,581.4286,765.16486,544.35895,0.07305908203125,-0.09051513671875,1.00115966796875,2.071075439453125,-4.41131591796875,-0.142059326171875,1,1.0,1.0,2.0,1.0,40.00
2024-03-04 10:10:51.769,,,,,,,,,,,,,,,,,,,,,,,,,,,,,,,,,,,,,,/muse/elements/blink
2024-03-04 10:10:52.685,1.3441775,0.9869112,0.0,1.305262,0.7461044,0.6705832,0.0,0.86427754,0.9729412,0.84629303,0.0,1.0635206,0.7126581,0.59638417,0.0,0.65721697,0.41252875,0.49311033,0.0,0.25769636,866.30035,837.6923,796.5934,850.58606,956.55676,0.07232666015625,-0.08892822265625,1.0001220703125,2.093505859375,-4.478607177734375,-1.502838134765625,1,1.0,1.0,2.0,1.0,40.00
2024-03-04 10:10:52.910,,,,,,,,,,,,,,,,,,,,,,,,,,,,,,,,,,,,,,/muse/elements/blink
2024-03-04 10:10:53.709,1.5454205,0.95102054,0.0,1.5038928,0.87634724,0.61219406,0.0,1.1079216,0.96403164,0.74273324,0.0,1.068915,0.8669538,0.6990536,0.0,0.7243418,0.40752766,0.29881397,0.0,0.41022798,785.31134,816.7399,703.91943,781.28204,627.3626,0.07684326171875,-0.0845947265625,1.0037841796875,1.727142333984375,-3.75335693359375,-1.1962890625,1,1.0,1.0,2.0,1.0,40.00
2024-03-04 10:10:54.720,0.61263555,1.0143601,0.0,0.621347,0.7232612,0.87845904,0.0,0.5820959,1.0806206,0.9298931,0.0,0.6138128,0.8221365,0.6146329,0.0,0.66062665,0.493881,0.39592373,0.0,0.0975548,798.60803,807.0696,707.1429,781.685,657.98535,0.0731201171875,-0.08599853515625,1.00042724609375,1.71966552734375,-3.985137939453125,-1.054229736328125,1,1.0,1.0,2.0,1.0,40.00
2024-03-04 10:10:55.548,,,,,,,,,,,,,,,,,,,,,,,,,,,,,,,,,,,,,,/muse/elements/blink
2024-03-04 10:10:55.733,0.7037388,1.108673,0.0,0.87524146,0.76116544,0.8935928,0.0,0.80847305,1.1331712,1.004398,0.0,0.90501714,0.6681393,0.6895123,0.0,0.62213904,0.41325682,0.39347154,0.0,0.22683181,757.1062,825.6044,766.77655,752.27106,704.7253,0.07977294921875,-0.0897216796875,1.0,2.071075439453125,-4.246826171875,-1.256103515625,1,1.0,1.0,2.0,1.0,40.00
2024-03-04 10:10:56.744,0.91122437,0.79364246,0.0,0.9061514,0.68756855,0.65883654,0.0,0.48362535,0.9823522,0.8151374,0.0,0.74267715,0.5243588,0.7148655,0.0,0.39194432,0.21700707,0.34128872,0.0,-0.030055264,849.3773,822.381,1001.28204,841.7216,741.39197,0.0765380859375,-0.08538818359375,1.00030517578125,1.614990234375,-4.164581298828125,-1.128997802734375,1,1.0,1.0,2.0,1.0,40.00
2024-03-04 10:10:57.767,0.89932466,0.9336567,0.0,0.8597587,0.37986794,0.68126816,0.0,0.35843673,0.6047865,0.7490728,0.0,0.39777112,0.5797685,0.7198386,0.0,0.5536968,0.47395915,0.4022711,0.0,0.36618865,850.989,831.2454,986.3736,848.97437,1000.07324,0.07305908203125,-0.0850830078125,0.99896240234375,1.682281494140625,-3.775787353515625,-1.1065673828125,1,1.0,1.0,2.0,1.0,40.00
2024-03-04 10:10:58.779,0.7212545,0.93613124,0.0,0.8527075,0.6642474,0.763494,0.0,0.46402553,0.84202135,0.8125943,0.0,0.6075513,0.60280716,0.6938452,0.0,0.61489415,0.36091244,0.44136867,0.0,0.27638668,757.1062,839.304,609.2308,746.2271,812.3077,0.07879638671875,-0.08026123046875,1.0013427734375,2.370147705078125,-4.4561767578125,-0.9271240234375,1,1.0,1.0,2.0,1.0,40.00
2024-03-04 10:10:58.879,,,,,,,,,,,,,,,,,,,,,,,,,,,,,,,,,,,,,,/muse/elements/blink
2024-03-04 10:10:59.781,0.6638648,1.0330518,0.0,0.7635215,0.9060979,1.0100473,0.0,0.54864585,0.71282756,0.6000247,0.0,0.20490865,0.7750119,0.71687216,0.0,0.64986587,0.3396152,0.21817979,0.0,0.03503742,811.50183,823.9927,902.96704,832.8571,819.5604,0.08209228515625,-0.08489990234375,0.999755859375,1.86920166015625,-3.9776611328125,-0.949554443359375,1,1.0,1.0,2.0,1.0,40.00
2024-03-04 10:11:00.803,0.4417044,0.8315171,0.0,0.70183253,0.2708095,0.5700424,0.0,-0.04035446,0.35914323,0.6237163,0.0,0.573742,0.5481106,0.4403593,0.0,0.5124458,0.40201166,0.43312806,0.0,0.52192056,788.93774,819.9634,868.71796,767.1795,691.8315,0.08123779296875,-0.08447265625,0.99798583984375,1.667327880859375,-4.149627685546875,-1.099090576171875,1,1.0,1.0,2.0,1.0,40.00
2024-03-04 10:11:01.759,,,,,,,,,,,,,,,,,,,,,,,,,,,,,,,,,,,,,,/muse/elements/blink
2024-03-04 10:11:01.817,0.9344392,0.8982496,0.0,0.8824495,0.623871,0.59642345,0.0,0.47147754,0.91910243,0.82995725,0.0,1.1028687,0.5649581,0.573161,0.0,0.5246949,0.34807873,0.39125544,0.0,0.41287267,807.0696,841.31866,1019.41394,810.293,905.38464,0.0814208984375,-0.08648681640625,1.00054931640625,1.1663818359375,-3.84307861328125,-1.12152099609375,1,1.0,1.0,2.0,1.0,40.00
2024-03-04 10:11:02.024,,,,,,,,,,,,,,,,,,,,,,,,,,,,,,,,,,,,,,/muse/elements/blink
2024-03-04 10:11:02.731,,,,,,,,,,,,,,,,,,,,,,,,,,,,,,,,,,,,,,/muse/elements/blink
2024-03-04 10:11:02.827,1.3002034,0.87340516,0.0,1.0182158,0.8928508,0.6653199,0.0,0.7749286,0.9016157,0.66397834,0.0,0.9813908,0.5828202,0.66745275,0.0,0.695406,0.25057623,0.38768542,0.0,0.31825912,801.02563,806.6667,626.1539,793.7729,504.8718,0.0791015625,-0.084716796875,0.9962158203125,1.532745361328125,-4.11224365234375,-1.128997802734375,1,1.0,1.0,2.0,1.0,40.00
2024-03-04 10:11:03.839,1.3711473,0.8732243,0.0,1.0839684,0.91673464,0.61213434,0.0,0.7893376,0.89119226,0.5454523,0.0,0.95929635,0.58912295,0.70080775,0.0,0.7390112,0.24131699,0.33113444,0.0,0.27821565,838.9011,839.304,713.5897,817.1429,817.1429,0.0787353515625,-0.08648681640625,1.00067138671875,1.786956787109375,-4.007568359375,-1.457977294921875,1,1.0,1.0,2.0,1.0,40.00
2024-03-04 10:11:04.842,0.7849166,0.87914914,0.0,1.0270491,0.41481355,0.8281698,0.0,0.8321842,0.961822,0.4307019,0.0,0.9500855,0.8599487,0.85083824,0.0,0.6346294,0.50800866,0.41929018,0.0,0.3275916,869.12085,841.7216,985.16486,866.7033,1008.5348,0.0794677734375,-0.08660888671875,1.0037841796875,1.256103515625,-3.671112060546875,-1.55517578125,1,1.0,1.0,2.0,1.0,40.00
2024-03-04 10:11:05.522,,,,,,,,,,,,,,,,,,,,,,,,,,,,,,,,,,,,,,/muse/elements/blink
2024-03-04 10:11:05.856,0.66498655,0.8877306,0.0,0.8138578,0.29588842,0.69370925,0.0,0.6822642,0.95110255,0.43615165,0.0,0.916012,0.7107706,0.8436757,0.0,0.5885668,0.5080454,0.43570438,0.0,0.28249705,789.7436,796.99634,656.77655,778.86444,551.6117,0.0765380859375,-0.08551025390625,0.99908447265625,1.652374267578125,-3.925323486328125,-1.09161376953125,1,1.0,1.0,2.0,1.0,40.00
2024-03-04 10:11:06.857,-0.2384014,0.89571255,0.0,0.10426334,0.21127802,0.50991327,0.0,0.115074106,0.23212893,0.16012289,0.0,0.17550111,0.7488546,0.85491574,0.0,0.47080573,0.40057296,0.42992395,0.0,0.12337431,835.2747,830.0366,1030.2931,848.1685,845.7509,0.0762939453125,-0.08782958984375,1.0003662109375,1.592559814453125,-3.529052734375,-1.024322509765625,1,1.0,1.0,2.0,1.0,40.00
2024-03-04 10:11:07.876,0.6647665,0.82126987,0.0,0.29807535,0.6589153,0.63387525,0.0,0.47503135,0.8424599,0.6669803,0.0,0.8793408,0.6482611,0.7901424,0.0,0.6719621,0.46041697,0.62100166,0.0,0.38557422,780.87915,846.1539,774.43225,766.77655,738.1685,0.07952880859375,-0.0880126953125,0.9957275390625,1.428070068359375,-3.93280029296875,-1.667327880859375,1,1.0,1.0,2.0,1.0,40.00
2024-03-04 10:11:08.902,0.9522481,1.0963697,0.0,0.7869709,0.6250638,0.7245791,0.0,0.6123562,0.67520446,0.61743355,0.0,0.82111204,0.70773476,0.7970091,0.0,0.77679354,0.47141224,0.723933,0.0,0.42783332,844.5421,810.293,853.8095,850.989,1078.2417,0.0771484375,-0.090087890625,1.00042724609375,1.009368896484375,-3.357086181640625,-1.697235107421875,1,1.0,1.0,2.0,1.0,40.00
2024-03-04 10:11:09.903,0.82204986,0.8032,0.0,0.8849018,0.47224694,0.37109783,0.0,0.7005241,0.786258,0.56633687,0.0,0.8551058,0.8314171,0.7161479,0.0,0.69281614,0.44041997,0.42443767,0.0,0.26960075,774.43225,802.6374,573.36993,778.86444,675.31134,0.08172607421875,-0.08746337890625,1.00299072265625,1.757049560546875,-4.314117431640625,-1.816864013671875,1,1.0,1.0,2.0,1.0,40.00
2024-03-04 10:11:10.921,0.64630896,0.8171135,0.0,0.688078,0.2738079,0.6951222,0.0,0.4255582,0.79389685,0.75209606,0.0,0.5941046,0.8000126,0.68324584,0.0,0.5908106,0.45750132,0.4891062,0.0,0.28438038,845.34796,835.6777,705.9341,821.1722,574.57874,0.08355712890625,-0.08251953125,0.99969482421875,1.614990234375,-3.970184326171875,-1.55517578125,1,1.0,1.0,2.0,1.0,40.00
2024-03-04 10:11:11.932,1.0319121,0.8639567,0.0,0.8636638,0.69383943,0.75870866,0.0,0.48600513,0.6486521,0.88862324,0.0,0.8782299,0.7864757,0.7452806,0.0,0.5871223,0.523143,0.5466198,0.0,0.2664864,783.69965,840.10986,647.1062,774.0293,820.7692,0.08203125,-0.09075927734375,0.99945068359375,1.8243408203125,-4.127197265625,-1.143951416015625,1,1.0,1.0,2.0,1.0,40.00
2024-03-04 10:11:12.206,,,,,,,,,,,,,,,,,,,,,,,,,,,,,,,,,,,,,,/muse/elements/blink
2024-03-04 10:11:12.946,0.9404463,0.9615486,0.0,0.99847,0.9128685,0.81650734,0.0,0.85452133,0.8630406,0.8093744,0.0,0.8969147,0.7546308,0.826668,0.0,0.67760134,0.58077145,0.5587481,0.0,0.2575586,828.8278,813.5165,897.326,821.5751,817.5458,0.0814208984375,-0.0860595703125,0.9959716796875,1.54022216796875,-3.835601806640625,-1.42059326171875,1,1.0,1.0,2.0,1.0,40.00
2024-03-04 10:11:13.950,0.93053013,0.7378268,0.0,1.0128577,0.7563095,0.8444425,0.0,0.81446695,1.043954,0.9291159,0.0,1.0117158,0.76010215,0.77899474,0.0,0.7117768,0.455643,0.5951329,0.0,0.3470788,828.4249,821.5751,979.5238,838.0952,958.5714,0.080078125,-0.08416748046875,1.0025634765625,1.6448974609375,-4.17205810546875,-1.07666015625,1,1.0,1.0,2.0,1.0,40.00
2024-03-04 10:11:14.223,,,,,,,,,,,,,,,,,,,,,,,,,,,,,,,,,,,,,,/muse/elements/blink
2024-03-04 10:11:14.955,1.0339361,0.7161513,0.0,1.0393165,0.54675853,0.54817617,0.0,0.62761885,0.93278277,0.6158997,0.0,0.85845,0.67108476,0.6791057,0.0,0.7254483,0.44256207,0.63104314,0.0,0.3203951,856.63007,745.0183,593.91943,855.82416,675.31134,0.07965087890625,-0.08453369140625,1.001708984375,1.936492919921875,-3.768310546875,-1.218719482421875,1,1.0,1.0,2.0,1.0,40.00
2024-03-04 10:11:15.074,,,,,,,,,,,,,,,,,,,,,,,,,,,,,,,,,,,,,,/muse/elements/blink
2024-03-04 10:11:15.965,1.0392078,0.75897324,0.0,1.0393165,0.4030182,0.32766762,0.0,0.62761885,0.83405787,0.4944423,0.0,0.85845,0.6495967,0.49185473,0.0,0.7254483,0.39615062,0.54847825,0.0,0.3203951,844.1392,815.9341,863.47986,842.9304,724.87177,0.08111572265625,-0.08441162109375,0.997314453125,1.487884521484375,-4.246826171875,-1.562652587890625,1,1.0,1.0,2.0,1.0,40.00
2024-03-04 10:11:16.368,,,,,,,,,,,,,,,,,,,,,,,,,,,,,,,,,,,,,,/muse/elements/blink
2024-03-04 10:11:16.979,1.0392078,0.75897324,0.0,1.0294819,0.4030182,0.32766762,0.0,0.7465274,0.83405787,0.4944423,0.0,0.7604435,0.6495967,0.49185473,0.0,0.6916629,0.39615062,0.54847825,0.0,0.4664805,805.05493,825.2015,889.67035,791.75824,528.24176,0.08319091796875,-0.087890625,0.99859619140625,2.071075439453125,-4.164581298828125,-1.00189208984375,1,1.0,1.0,2.0,1.0,40.00
2024-03-04 10:11:17.999,0.2863839,0.75897324,0.0,0.81930727,0.50434023,0.32766762,0.0,0.56535023,0.59495693,0.4944423,0.0,0.77409583,0.787609,0.49185473,0.0,0.59611225,0.47194213,0.54847825,0.0,0.33880633,782.8938,806.26373,415.42123,775.2381,854.61536,0.079345703125,-0.0848388671875,0.999267578125,1.637420654296875,-4.0673828125,-1.18133544921875,1,1.0,1.0,2.0,1.0,40.00
2024-03-04 10:11:19.018,0.50708133,1.1907705,0.0,0.78891957,0.6479161,1.0949762,0.0,0.53079736,1.0837293,1.4836283,0.0,0.84197253,0.93201065,0.772788,0.0,0.72263765,0.47805342,0.5987186,0.0,0.3520629,821.5751,792.5641,655.9707,813.1135,970.2564,0.0823974609375,-0.08868408203125,0.9979248046875,1.443023681640625,-4.0374755859375,-1.375732421875,1,1.0,1.0,2.0,1.0,40.00
2024-03-04 10:11:20.039,0.60959905,1.0554197,0.0,0.899618,0.6075459,0.87284404,0.0,0.6751371,1.1434393,1.4836283,0.0,0.84674305,0.8740532,0.7809118,0.0,0.69232595,0.5442914,0.6012016,0.0,0.33320624,830.84247,837.28937,846.1539,816.337,770.0,0.08026123046875,-0.08721923828125,0.998291015625,1.293487548828125,-4.05242919921875,-1.069183349609375,1,1.0,1.0,2.0,1.0,40.00
2024-03-04 10:11:21.054,0.51549864,1.1566547,0.0,0.39614385,0.36180043,0.5153914,0.0,0.5033615,0.9895252,0.9599644,0.0,0.8773981,0.82409,0.7616354,0.0,0.6022445,0.52679664,0.39014095,0.0,0.31599617,786.52014,825.6044,855.82416,790.14655,735.34796,0.08026123046875,-0.08770751953125,1.00054931640625,2.190704345703125,-4.0374755859375,-1.54022216796875,1,1.0,1.0,2.0,1.0,40.00
2024-03-04 10:11:21.621,,,,,,,,,,,,,,,,,,,,,,,,,,,,,,,,,,,,,,/muse/elements/blink
2024-03-04 10:11:22.086,0.38764682,1.2515259,0.0,0.24770002,0.62558997,0.7379387,0.0,0.8864286,0.7698181,0.81879723,0.0,0.746063,0.7041083,0.7538379,0.0,0.5998918,0.49813107,0.08301781,0.0,0.28084117,774.0293,822.7839,612.0513,753.0769,541.9414,0.0806884765625,-0.085205078125,0.99639892578125,1.4056396484375,-3.910369873046875,-1.009368896484375,1,1.0,1.0,2.0,1.0,40.00
2024-03-04 10:11:23.101,0.17389035,1.2515259,0.0,0.25746125,0.7859016,0.7379387,0.0,1.0537022,0.509431,0.81879723,0.0,0.74394,0.6828115,0.7538379,0.0,0.74331415,0.3783862,0.08301781,0.0,0.26465145,832.4542,805.8608,958.97437,840.9158,813.5165,0.0831298828125,-0.08758544921875,0.999755859375,1.42059326171875,-3.63372802734375,-1.375732421875,1,1.0,1.0,2.0,1.0,40.00
2024-03-04 10:11:24.110,0.70424384,1.2515259,0.0,0.9372936,0.7304241,0.7379387,0.0,0.84238267,1.137375,0.81879723,0.0,0.9898641,0.8561579,0.7538379,0.0,0.7282512,0.41001996,0.08301781,0.0,0.46958062,784.90845,836.8865,782.0879,780.4762,601.978,0.07879638671875,-0.0921630859375,1.00042724609375,1.547698974609375,-3.805694580078125,-1.71966552734375,1,1.0,1.0,2.0,1.0,40.00
2024-03-04 10:11:25.115,0.97275424,1.2583319,0.0,1.0805761,0.65969443,0.80616707,0.0,0.91172,1.070517,0.71479213,0.0,0.9657028,0.9052166,0.6152621,0.0,0.61654717,0.43293676,0.47134158,0.0,0.39617673,836.8865,821.5751,845.7509,834.87177,1087.9121,0.080078125,-0.087890625,0.9993896484375,2.026214599609375,-4.418792724609375,-1.443023681640625,1,1.0,1.0,2.0,1.0,40.00
2024-03-04 10:11:26.122,0.76900804,0.87819004,0.0,0.59738183,0.8526532,0.4529983,0.0,0.44879273,0.90432346,0.5729039,0.0,0.42927906,0.9259775,0.883647,0.0,0.502202,0.5677099,0.61856925,0.0,0.39326522,751.8681,795.78754,582.6374,762.3443,626.1539,0.0789794921875,-0.08551025390625,0.99700927734375,1.801910400390625,-3.648681640625,-1.697235107421875,1,1.0,1.0,2.0,1.0,40.00
2024-03-04 10:11:26.490,,,,,,,,,,,,,,,,,,,,,,,,,,,,,,,,,,,,,,/muse/elements/blink
2024-03-04 10:11:27.147,0.93722135,0.66294485,0.0,0.5928421,0.76047325,0.1781475,0.0,0.47705737,0.77286804,0.52163273,0.0,0.2685659,0.8006925,0.94624865,0.0,0.55529565,0.5822067,0.5792675,0.0,0.49670807,815.9341,844.5421,753.0769,802.6374,578.60803,0.0841064453125,-0.08941650390625,1.00067138671875,1.577606201171875,-3.850555419921875,-1.614990234375,1,1.0,1.0,2.0,1.0,40.00
2024-03-04 10:11:28.159,0.702991,1.0689006,0.0,0.7022115,0.45618683,0.6331485,0.0,0.50336134,0.3821978,0.51488507,0.0,0.06929811,0.8768966,0.8954256,0.0,0.563965,0.68923914,0.44961828,0.0,0.44542322,805.05493,834.0659,859.85345,799.81683,683.7729,0.08343505859375,-0.08514404296875,0.99658203125,1.487884521484375,-3.985137939453125,-1.562652587890625,1,1.0,1.0,2.0,1.0,40.00
2024-03-04 10:11:29.171,0.9152168,0.98762065,0.0,0.6197843,0.65373945,0.5402309,0.0,0.40934247,1.0592504,0.78050506,0.0,0.5953878,0.7676229,0.8487414,0.0,0.51785696,0.5535533,0.4353516,0.0,0.38127303,785.7143,797.8022,537.9121,776.4469,697.0696,0.08221435546875,-0.0882568359375,0.998779296875,1.921539306640625,-4.0374755859375,-1.128997802734375,1,1.0,1.0,2.0,1.0,40.00
2024-03-04 10:11:30.184,1.002182,0.93391997,0.0,0.57494515,0.59823525,0.7280953,0.0,0.42726576,1.0494609,0.7845033,0.0,0.70125103,0.664645,0.7452324,0.0,0.57415074,0.45691457,0.26099008,0.0,0.40513644,838.49817,807.47253,942.4542,856.63007,945.2747,0.0836181640625,-0.08721923828125,0.9970703125,1.9140625,-4.254302978515625,-1.0467529296875,1,1.0,1.0,2.0,1.0,40.00
2024-03-04 10:11:30.771,,,,,,,,,,,,,,,,,,,,,,,,,,,,,,,,,,,,,,/muse/elements/blink
2024-03-04 10:11:31.195,0.47663736,0.98318547,0.0,1.0791208,0.41827166,0.6178988,0.0,0.96809256,0.33429232,0.8907602,0.0,1.4121023,0.67003906,0.67850095,0.0,0.77103055,0.6398442,0.2941616,0.0,0.49426174,762.3443,802.6374,580.6227,774.0293,772.4176,0.086669921875,-0.083251953125,0.99969482421875,1.65985107421875,-3.805694580078125,-1.3458251953125,1,1.0,1.0,2.0,1.0,40.00
2024-03-04 10:11:31.597,,,,,,,,,,,,,,,,,,,,,,,,,,,,,,,,,,,,,,/muse/elements/blink
2024-03-04 10:11:32.199,0.1865325,1.112366,0.0,1.5188276,0.26916578,0.7174592,0.0,1.3554305,0.3015019,0.80047584,0.0,1.4121023,0.73483056,0.67519855,0.0,1.0137268,0.75103474,0.28243482,0.0,0.27447212,797.8022,841.7216,875.9707,797.8022,912.6374,0.08367919921875,-0.08453369140625,1.00030517578125,2.011260986328125,-3.7982177734375,-1.158905029296875,1,1.0,1.0,2.0,1.0,40.00
2024-03-04 10:11:33.208,1.0147874,0.83640236,0.0,0.7096525,0.762255,0.8365185,0.0,0.86286485,0.79503536,1.0448661,0.0,0.8080584,0.8399436,0.72278184,0.0,0.50795174,0.4745012,0.457101,0.0,0.38846627,802.6374,811.0989,786.52014,780.07324,518.5714,0.08172607421875,-0.08673095703125,1.00225830078125,1.4654541015625,-3.60382080078125,-1.218719482421875,1,1.0,1.0,2.0,1.0,40.00
2024-03-04 10:11:34.216,0.85058343,0.63687855,0.0,0.85561687,0.65410936,0.6169722,0.0,0.7842923,0.8954834,1.0718997,0.0,0.8732176,0.7773357,0.7375665,0.0,0.6504235,0.45353544,0.42750227,0.0,0.34190577,798.60803,819.5604,676.9231,792.1612,654.35895,0.08563232421875,-0.08721923828125,0.99761962890625,1.652374267578125,-3.81317138671875,-1.443023681640625,1,1.0,1.0,2.0,1.0,40.00
2024-03-04 10:11:35.224,0.76237255,0.88598406,0.0,0.84386635,0.4838702,0.59025204,0.0,0.512699,0.8098744,1.1006168,0.0,0.8048171,0.69464743,0.7325403,0.0,0.64452064,0.38267246,0.43970972,0.0,0.35930428,815.9341,819.5604,691.02563,811.0989,1035.5311,0.08074951171875,-0.0916748046875,0.9991455078125,1.697235107421875,-4.17205810546875,-1.55517578125,1,1.0,1.0,2.0,1.0,40.00
2024-03-04 10:11:35.867,,,,,,,,,,,,,,,,,,,,,,,,,,,,,,,,,,,,,,/muse/elements/blink
2024-03-04 10:11:36.229,1.1369097,0.98580104,0.0,1.0934968,0.58044565,0.7794589,0.0,0.65866125,0.6813848,1.0347726,0.0,0.6134755,0.79196405,0.5841055,0.0,0.7275202,0.42460662,0.17279644,0.0,0.37917373,833.663,827.619,828.022,830.0366,820.7692,0.083251953125,-0.06787109375,1.00042724609375,2.01873779296875,-3.6785888671875,-0.91217041015625,1,1.0,1.0,2.0,1.0,40.00
2024-03-04 10:11:37.194,,,,,,,,,,,,,,,,,,,,,,,,,,,,,,,,,,,,,,/muse/elements/blink
2024-03-04 10:11:37.234,1.1369097,0.5385278,0.0,1.0934968,0.58044565,0.6373153,0.0,0.65866125,0.6813848,1.0063311,0.0,0.6134755,0.79196405,0.3533018,0.0,0.7275202,0.42460662,0.021468922,0.0,0.37917373,878.7912,818.7546,1107.6556,926.7399,896.1172,0.1005859375,-0.0758056640625,1.0003662109375,0.5682373046875,-5.211334228515625,-0.8673095703125,1,1.0,1.0,2.0,1.0,40.00
2024-03-04 10:11:37.698,,,,,,,,,,,,,,,,,,,,,,,,,,,,,,,,,,,,,,/muse/elements/jaw_clench
2024-03-04 10:11:38.065,,,,,,,,,,,,,,,,,,,,,,,,,,,,,,,,,,,,,,/muse/elements/blink
2024-03-04 10:11:38.248,1.1369097,0.622517,0.0,1.0934968,0.58044565,0.68872416,0.0,0.65866125,0.6813848,0.9866281,0.0,0.6134755,0.79196405,0.41525325,0.0,0.7275202,0.42460662,-0.016892243,0.0,0.37917373,1281.3187,1177.7656,1546.044,925.5311,976.30035,0.05950927734375,0.0211181640625,0.94659423828125,0.934600830078125,5.839385986328125,-9.55535888671875,1,2.0,1.0,2.0,2.0,40.00
2024-03-04 10:11:38.310,,,,,,,,,,,,,,,,,,,,,,,,,,,,,,,,,,,,,,/muse/elements/blink
2024-03-04 10:11:38.994,,,,,,,,,,,,,,,,,,,,,,,,,,,,,,,,,,,,,,/muse/elements/jaw_clench
2024-03-04 10:11:39.181,,,,,,,,,,,,,,,,,,,,,,,,,,,,,,,,,,,,,,/muse/elements/blink
2024-03-04 10:11:39.263,1.1369097,0.72727686,0.0,1.0934968,0.58044565,0.6209165,0.0,0.65866125,0.6813848,0.9618113,0.0,0.6134755,0.79196405,0.40701145,0.0,0.7275202,0.42460662,-0.048883397,0.0,0.37917373,911.02563,1245.0549,1131.4286,866.30035,792.96704,0.04205322265625,-0.09063720703125,0.95928955078125,3.4991455078125,-7.73101806640625,-2.2430419921875,1,2.0,1.0,2.0,2.0,40.00
2024-03-04 10:11:39.532,,,,,,,,,,,,,,,,,,,,,,,,,,,,,,,,,,,,,,/muse/elements/blink
2024-03-04 10:11:39.914,,,,,,,,,,,,,,,,,,,,,,,,,,,,,,,,,,,,,,/muse/elements/blink
2024-03-04 10:11:40.268,1.1369097,0.72727686,0.0,1.0934968,0.58044565,0.6209165,0.0,0.65866125,0.6813848,0.9618113,0.0,0.6134755,0.79196405,0.40701145,0.0,0.7275202,0.42460662,-0.048883397,0.0,0.37917373,790.9524,962.1978,1069.7803,796.1905,981.13556,0.0565185546875,-0.067626953125,0.92230224609375,-10.7666015625,0.04486083984375,6.89361572265625,1,2.0,1.0,2.0,2.0,40.00
2024-03-04 10:11:40.754,,,,,,,,,,,,,,,,,,,,,,,,,,,,,,,,,,,,,,/muse/elements/blink
2024-03-04 10:11:41.296,1.1369097,0.72727686,0.0,1.0934968,0.58044565,0.6209165,0.0,0.65866125,0.6813848,0.9618113,0.0,0.6134755,0.79196405,0.40701145,0.0,0.7275202,0.42460662,-0.048883397,0.0,0.37917373,738.1685,641.8681,568.5348,665.64105,726.08057,0.0888671875,-0.101806640625,1.02960205078125,-1.921539306640625,-2.355194091796875,-1.48040771484375,1,2.0,1.0,2.0,2.0,40.00
2024-03-04 10:11:41.737,,,,,,,,,,,,,,,,,,,,,,,,,,,,,,,,,,,,,,/muse/elements/blink
2024-03-04 10:11:41.951,,,,,,,,,,,,,,,,,,,,,,,,,,,,,,,,,,,,,,/muse/elements/blink
2024-03-04 10:11:42.304,1.1369097,0.72727686,0.0,1.0934968,0.58044565,0.6209165,0.0,0.65866125,0.6813848,0.9618113,0.0,0.6134755,0.79196405,0.40701145,0.0,0.7275202,0.42460662,-0.048883397,0.0,0.37917373,946.08057,963.4066,873.1502,869.12085,800.6227,0.09979248046875,-0.05853271484375,0.99853515625,3.940277099609375,-6.89361572265625,-2.160797119140625,1,2.0,4.0,2.0,2.0,40.00
2024-03-04 10:11:42.672,,,,,,,,,,,,,,,,,,,,,,,,,,,,,,,,,,,,,,/muse/elements/blink
2024-03-04 10:11:43.184,,,,,,,,,,,,,,,,,,,,,,,,,,,,,,,,,,,,,,/muse/elements/blink
2024-03-04 10:11:43.324,1.1369097,0.72727686,0.0,1.0934968,0.58044565,0.6209165,0.0,0.65866125,0.6813848,0.9618113,0.0,0.6134755,0.79196405,0.40701145,0.0,0.7275202,0.42460662,-0.048883397,0.0,0.37917373,726.4835,551.2088,644.68866,767.5824,672.8938,0.11651611328125,-0.0628662109375,0.99267578125,-4.68048095703125,-1.21124267578125,-5.263671875,1,2.0,2.0,2.0,2.0,40.00
2024-03-04 10:11:43.731,,,,,,,,,,,,,,,,,,,,,,,,,,,,,,,,,,,,,,/muse/elements/jaw_clench
2024-03-04 10:11:44.340,1.1369097,0.72727686,0.0,1.0934968,0.58044565,0.6209165,0.0,0.65866125,0.6813848,0.9618113,0.0,0.6134755,0.79196405,0.40701145,0.0,0.7275202,0.42460662,-0.048883397,0.0,0.37917373,745.42126,694.65204,785.7143,841.7216,1250.6959,0.11431884765625,-0.0570068359375,1.00555419921875,1.45050048828125,-3.51409912109375,-0.49346923828125,1,2.0,2.0,2.0,2.0,40.00
2024-03-04 10:11:44.495,,,,,,,,,,,,,,,,,,,,,,,,,,,,,,,,,,,,,,/muse/elements/jaw_clench
2024-03-04 10:11:44.598,,,,,,,,,,,,,,,,,,,,,,,,,,,,,,,,,,,,,,/muse/elements/blink
2024-03-04 10:11:45.343,1.1369097,0.72727686,0.0,0.8535195,0.58044565,0.6209165,0.0,0.42792243,0.6813848,0.9618113,0.0,0.90749806,0.79196405,0.40701145,0.0,0.92741704,0.42460662,-0.048883397,0.0,0.8170706,735.34796,747.8388,320.7326,755.89746,645.89746,0.03369140625,-0.06146240234375,1.00042724609375,4.388885498046875,6.4599609375,3.3197021484375,1,1.0,2.0,2.0,1.0,40.00
2024-03-04 10:11:45.399,,,,,,,,,,,,,,,,,,,,,,,,,,,,,,,,,,,,,,/muse/elements/jaw_clench
2024-03-04 10:11:46.354,1.1369097,0.72727686,0.0,1.0840721,0.58044565,0.6209165,0.0,0.7788482,0.6813848,0.9618113,0.0,1.1053346,0.79196405,0.40701145,0.0,1.1503917,0.42460662,-0.048883397,0.0,0.954019,843.3333,852.6007,1060.5128,845.7509,636.63007,0.01177978515625,-0.03985595703125,0.99993896484375,0.22430419921875,-2.280426025390625,-0.829925537109375,1,1.0,1.0,2.0,1.0,40.00
2024-03-04 10:11:46.850,,,,,,,,,,,,,,,,,,,,,,,,,,,,,,,,,,,,,,/muse/elements/blink
2024-03-04 10:11:46.850,,,,,,,,,,,,,,,,,,,,,,,,,,,,,,,,,,,,,,/muse/elements/jaw_clench
2024-03-04 10:11:47.361,1.1369097,0.72727686,0.0,1.2073613,0.58044565,0.6209165,0.0,0.87787807,0.6813848,0.9618113,0.0,0.9726001,0.79196405,0.40701145,0.0,1.3262615,0.42460662,-0.048883397,0.0,1.0944519,755.09155,809.4872,903.7729,796.1905,605.2015,0.17626953125,-0.03857421875,0.97332763671875,3.820648193359375,-7.753448486328125,-7.080535888671875,1,1.0,4.0,2.0,1.0,40.00
2024-03-04 10:11:47.543,,,,,,,,,,,,,,,,,,,,,,,,,,,,,,,,,,,,,,/muse/elements/jaw_clench
2024-03-04 10:11:47.834,,,,,,,,,,,,,,,,,,,,,,,,,,,,,,,,,,,,,,/muse/elements/blink
2024-03-04 10:11:48.326,,,,,,,,,,,,,,,,,,,,,,,,,,,,,,,,,,,,,,/muse/elements/blink
2024-03-04 10:11:48.326,,,,,,,,,,,,,,,,,,,,,,,,,,,,,,,,,,,,,,/muse/elements/jaw_clench
2024-03-04 10:11:48.365,1.1369097,0.72727686,0.0,1.2073613,0.58044565,0.6209165,0.0,0.87787807,0.6813848,0.9618113,0.0,0.9726001,0.79196405,0.40701145,0.0,1.3262615,0.42460662,-0.048883397,0.0,1.0944519,916.26373,737.3626,480.69598,878.7912,722.0513,0.17431640625,-0.05828857421875,1.01025390625,5.7421875,-1.435546875,0.657958984375,1,1.0,1.0,2.0,1.0,40.00
2024-03-04 10:11:49.182,,,,,,,,,,,,,,,,,,,,,,,,,,,,,,,,,,,,,,/muse/elements/blink
2024-03-04 10:11:49.373,1.1369097,0.72727686,0.0,1.2073613,0.58044565,0.6209165,0.0,0.87787807,0.6813848,0.9618113,0.0,0.9726001,0.79196405,0.40701145,0.0,1.3262615,0.42460662,-0.048883397,0.0,1.0944519,817.5458,724.0659,932.381,824.3956,875.56775,0.0653076171875,-0.05462646484375,1.00457763671875,1.60003662109375,4.538421630859375,-4.53094482421875,1,2.0,1.0,2.0,2.0,40.00
2024-03-04 10:11:49.982,,,,,,,,,,,,,,,,,,,,,,,,,,,,,,,,,,,,,,/muse/elements/blink
2024-03-04 10:11:50.266,,,,,,,,,,,,,,,,,,,,,,,,,,,,,,,,,,,,,,/muse/elements/jaw_clench
2024-03-04 10:11:50.396,1.1369097,0.72727686,0.0,1.2073613,0.58044565,0.6209165,0.0,0.87787807,0.6813848,0.9618113,0.0,0.9726001,0.79196405,0.40701145,0.0,1.3262615,0.42460662,-0.048883397,0.0,1.0944519,697.8755,783.2967,678.93774,752.674,632.1978,0.0174560546875,-0.046142578125,1.00750732421875,5.016937255859375,-4.957122802734375,-7.40203857421875,1,2.0,1.0,2.0,2.0,40.00
2024-03-04 10:11:51.217,,,,,,,,,,,,,,,,,,,,,,,,,,,,,,,,,,,,,,/muse/elements/blink
2024-03-04 10:11:51.411,1.1369097,0.72727686,0.0,1.2073613,0.58044565,0.6209165,0.0,0.87787807,0.6813848,0.9618113,0.0,0.9726001,0.79196405,0.40701145,0.0,1.3262615,0.42460662,-0.048883397,0.0,1.0944519,838.9011,869.5238,1208.3883,848.5714,921.9048,0.046142578125,-0.06524658203125,1.0047607421875,1.353302001953125,-4.583282470703125,-3.75335693359375,1,2.0,1.0,2.0,2.0,40.00
2024-03-04 10:11:51.788,,,,,,,,,,,,,,,,,,,,,,,,,,,,,,,,,,,,,,/muse/elements/blink
2024-03-04 10:11:52.431,1.1369097,0.72727686,0.0,1.2073613,0.58044565,0.6209165,0.0,0.87787807,0.6813848,0.9618113,0.0,0.9726001,0.79196405,0.40701145,0.0,1.3262615,0.42460662,-0.048883397,0.0,1.0944519,724.4689,787.72894,846.55676,744.21246,506.88644,0.0474853515625,-0.05841064453125,1.00469970703125,4.104766845703125,-4.127197265625,-2.01873779296875,1,2.0,1.0,2.0,2.0,40.00
2024-03-04 10:11:53.455,1.1369097,0.72727686,0.0,1.2073613,0.58044565,0.6209165,0.0,0.87787807,0.6813848,0.9618113,0.0,0.9726001,0.79196405,0.40701145,0.0,1.3262615,0.42460662,-0.048883397,0.0,1.0944519,789.34064,844.94507,1045.2014,796.99634,886.4469,0.0469970703125,-0.04498291015625,1.00244140625,1.831817626953125,-3.5589599609375,-1.398162841796875,1,2.0,1.0,2.0,2.0,40.00
2024-03-04 10:11:54.462,1.1369097,0.72727686,0.0,1.2073613,0.58044565,0.6209165,0.0,0.87787807,0.6813848,0.9618113,0.0,0.9726001,0.79196405,0.40701145,0.0,1.3262615,0.42460662,-0.048883397,0.0,1.0944519,751.06226,823.5897,675.7143,744.21246,939.2308,0.04791259765625,-0.04730224609375,1.00421142578125,1.9439697265625,-4.26177978515625,-1.293487548828125,1,2.0,1.0,2.0,2.0,40.00
2024-03-04 10:11:55.472,1.1369097,0.72727686,0.0,1.1274568,0.58044565,0.6209165,0.0,0.9501496,0.6813848,0.9618113,0.0,0.724444,0.79196405,0.40701145,0.0,0.90830064,0.42460662,-0.048883397,0.0,0.78154504,806.6667,790.9524,994.43225,800.2198,898.93774,0.04327392578125,-0.0404052734375,1.00762939453125,1.054229736328125,-4.1571044921875,-1.60003662109375,1,1.0,1.0,2.0,1.0,40.00
2024-03-04 10:11:56.080,,,,,,,,,,,,,,,,,,,,,,,,,,,,,,,,,,,,,,/muse/elements/blink
2024-03-04 10:11:56.485,1.1369097,0.72727686,0.0,0.90315014,0.58044565,0.6209165,0.0,0.9260283,0.6813848,0.9618113,0.0,0.6063438,0.79196405,0.40701145,0.0,0.88914704,0.42460662,-0.048883397,0.0,0.6800043,767.1795,818.3516,594.3223,751.8681,671.685,0.0426025390625,-0.0330810546875,1.00689697265625,2.041168212890625,-4.007568359375,-1.03179931640625,1,1.0,1.0,2.0,1.0,40.00
2024-03-04 10:11:57.498,1.1369097,0.72727686,0.0,0.90315014,0.58044565,0.6209165,0.0,0.9260283,0.6813848,0.9618113,0.0,0.6063438,0.79196405,0.40701145,0.0,0.88914704,0.42460662,-0.048883397,0.0,0.6800043,770.0,815.9341,597.9487,759.12085,622.52747,0.04608154296875,-0.0389404296875,1.00128173828125,1.772003173828125,-3.790740966796875,-1.308441162109375,1,1.0,1.0,2.0,1.0,40.00
2024-03-04 10:11:58.507,1.1369097,0.72727686,0.0,0.90315014,0.58044565,0.6209165,0.0,0.9260283,0.6813848,0.9618113,0.0,0.6063438,0.79196405,0.40701145,0.0,0.88914704,0.42460662,-0.048883397,0.0,0.6800043,788.93774,803.44324,705.12823,812.71063,925.5311,0.044677734375,-0.04052734375,1.0048828125,1.861724853515625,-3.81317138671875,-1.5252685546875,1,2.0,1.0,2.0,2.0,40.00
2024-03-04 10:11:58.616,,,,,,,,,,,,,,,,,,,,,,,,,,,,,,,,,,,,,,/muse/elements/blink
2024-03-04 10:11:59.519,1.1369097,0.72727686,0.0,0.90315014,0.58044565,0.6209165,0.0,0.9260283,0.6813848,0.9618113,0.0,0.6063438,0.79196405,0.40701145,0.0,0.88914704,0.42460662,-0.048883397,0.0,0.6800043,763.1502,813.5165,717.619,763.95605,726.8865,0.044677734375,-0.043701171875,1.0079345703125,1.80938720703125,-3.94775390625,-0.934600830078125,1,2.0,1.0,2.0,2.0,40.00
2024-03-04 10:12:00.536,1.211423,0.88685036,0.0,1.2389828,0.7021329,0.7857286,0.0,0.75374055,1.1525226,0.6513026,0.0,1.0266557,1.0143363,0.7139493,0.0,0.850449,0.43306577,0.16560254,0.0,0.78691673,821.1722,815.5311,834.4689,826.4103,1151.978,0.04547119140625,-0.04248046875,1.00421142578125,1.921539306640625,-3.768310546875,-1.3458251953125,1,1.0,1.0,2.0,1.0,40.00
2024-03-04 10:12:01.553,1.1893871,0.8966463,0.0,1.1486548,1.0136839,0.7913469,0.0,0.93715686,1.276006,0.6513026,0.0,0.9492942,0.98049116,0.7176168,0.0,0.8127722,0.5138361,0.12866625,0.0,0.78202635,764.7619,789.34064,450.07327,767.98535,790.14655,0.04644775390625,-0.0391845703125,1.00958251953125,1.428070068359375,-3.641204833984375,-0.411224365234375,1,1.0,1.0,2.0,1.0,40.00
2024-03-04 10:12:02.575,1.3605794,0.8966463,0.0,1.1664563,1.2685916,0.7913469,0.0,0.826368,1.2570277,0.6513026,0.0,0.8797986,0.9950094,0.7176168,0.0,0.9501639,0.59010696,0.12866625,0.0,0.66840285,763.5531,810.696,608.4249,763.95605,523.8095,0.05010986328125,-0.041259765625,1.00244140625,1.98883056640625,-3.9776611328125,-1.2860107421875,1,1.0,1.0,2.0,1.0,40.00
2024-03-04 10:12:03.590,0.42144287,0.81350666,0.0,0.92479765,0.59104824,0.31694663,0.0,0.69625145,0.33844516,0.59564626,0.0,0.85113543,0.642655,0.4721768,0.0,0.8070767,0.481535,-0.17850262,0.0,0.5754367,735.7509,948.49817,857.4359,708.3516,626.1539,0.04571533203125,-0.03826904296875,1.0086669921875,2.1533203125,-4.0374755859375,-1.323394775390625,1,1.0,1.0,2.0,1.0,40.00
2024-03-04 10:12:03.822,,,,,,,,,,,,,,,,,,,,,,,,,,,,,,,,,,,,,,/muse/elements/blink
2024-03-04 10:12:04.612,0.42144287,0.86179477,0.0,0.50527024,0.59104824,0.22943552,0.0,0.61334294,0.33844516,0.56723887,0.0,0.70254093,0.642655,0.41031715,0.0,0.75079817,0.481535,-0.25004208,0.0,0.548121,785.31134,841.31866,873.5531,794.9817,824.3956,0.044677734375,-0.04376220703125,1.0008544921875,0.657958984375,-4.044952392578125,-1.667327880859375,1,1.0,1.0,2.0,1.0,40.00
2024-03-04 10:12:05.406,,,,,,,,,,,,,,,,,,,,,,,,,,,,,,,,,,,,,,/muse/elements/blink
2024-03-04 10:12:05.637,0.82266575,0.86179477,0.0,0.50527024,0.8053798,0.22943552,0.0,0.61334294,0.87672746,0.56723887,0.0,0.70254093,0.83087355,0.41031715,0.0,0.75079817,0.5917399,-0.25004208,0.0,0.548121,766.77655,829.6337,707.5458,761.53845,671.685,0.03973388671875,-0.04730224609375,1.00299072265625,0.897216796875,-3.132781982421875,-1.383209228515625,1,1.0,1.0,2.0,1.0,40.00
2024-03-04 10:12:06.641,0.82266575,0.86179477,0.0,0.50527024,0.8053798,0.22943552,0.0,0.61334294,0.87672746,0.56723887,0.0,0.70254093,0.83087355,0.41031715,0.0,0.75079817,0.5917399,-0.25004208,0.0,0.548121,769.59705,812.3077,600.3663,766.77655,507.28937,0.03814697265625,-0.04412841796875,1.00762939453125,1.951446533203125,-4.059906005859375,-1.45050048828125,1,1.0,1.0,2.0,1.0,40.00
2024-03-04 10:12:07.651,1.0416816,0.66394866,0.0,0.87804276,0.78561157,0.38175556,0.0,0.7357409,1.2328837,0.46102235,0.0,1.1022687,0.7077257,0.52593005,0.0,0.9431504,0.6045652,0.19532585,0.0,0.5913655,804.2491,824.3956,871.9414,819.9634,931.978,0.038330078125,-0.04058837890625,1.0023193359375,2.0037841796875,-3.648681640625,-0.76263427734375,1,1.0,1.0,2.0,1.0,40.00
2024-03-04 10:12:08.661,1.2774502,0.62562776,0.0,1.1111227,1.1708121,0.62876743,0.0,0.9874752,1.253579,0.5145708,0.0,1.1116781,0.7624815,0.3078785,0.0,0.92432344,0.63599515,0.12140766,0.0,0.61688006,777.25275,817.9487,736.9597,778.46155,601.1722,0.03656005859375,-0.05474853515625,1.0023193359375,1.5850830078125,-4.418792724609375,-0.740203857421875,1,1.0,1.0,2.0,1.0,40.00
2024-03-04 10:12:09.675,0.9501535,0.4653955,0.0,0.9341216,0.9136468,0.3681913,0.0,0.80643624,0.84912163,0.61787987,0.0,0.7054232,0.7719558,0.5196232,0.0,0.825792,0.55144864,0.19357818,0.0,0.542738,859.85345,807.8755,883.22345,861.4652,913.0403,0.04583740234375,-0.04351806640625,1.00848388671875,1.42059326171875,-3.768310546875,-1.383209228515625,1,1.0,1.0,2.0,1.0,40.00
2024-03-04 10:12:10.684,0.82754755,0.9342009,0.0,0.83351517,0.39005786,0.45565787,0.0,0.44443804,0.7695121,0.71321416,0.0,0.54655725,0.8544796,0.4880802,0.0,0.8027316,0.6998928,0.050439462,0.0,0.71762174,803.8461,818.7546,809.4872,824.7985,907.8022,0.04681396484375,-0.044921875,1.006103515625,2.0037841796875,-3.940277099609375,-1.12152099609375,1,1.0,1.0,2.0,1.0,40.00
2024-03-04 10:12:11.695,0.49279863,1.0388438,0.0,0.50387174,0.32641348,0.4423791,0.0,0.5919872,0.67425704,0.64060897,0.0,0.80966616,0.7977948,0.3690803,0.0,0.7246184,0.77789956,-0.0033076783,0.0,0.7192057,784.90845,838.0952,516.1539,800.2198,779.67035,0.04766845703125,-0.0428466796875,1.00433349609375,1.68975830078125,-4.194488525390625,-1.278533935546875,1,1.0,1.0,2.0,1.0,40.00
2024-03-04 10:12:12.014,,,,,,,,,,,,,,,,,,,,,,,,,,,,,,,,,,,,,,/muse/elements/blink
2024-03-04 10:12:12.715,0.57515967,0.71835464,0.0,0.4134325,0.45601448,0.6755304,0.0,0.74250126,0.5376146,0.5107694,0.0,0.8760544,0.91693825,0.52228254,0.0,0.73550254,0.63720226,-0.09941465,0.0,0.7265884,662.8205,841.7216,672.0879,663.22345,763.1502,0.057861328125,0.01910400390625,1.07733154296875,5.181427001953125,-2.429962158203125,-5.443115234375,1,1.0,1.0,2.0,1.0,40.00
2024-03-04 10:12:12.936,,,,,,,,,,,,,,,,,,,,,,,,,,,,,,,,,,,,,,/muse/elements/blink
2024-03-04 10:12:13.425,,,,,,,,,,,,,,,,,,,,,,,,,,,,,,,,,,,,,,/muse/elements/blink
2024-03-04 10:12:13.725,0.6091925,0.7373952,0.0,0.49845323,0.53162444,0.72473925,0.0,0.76915663,0.53400713,0.3978626,0.0,0.83949846,0.93504006,0.56866217,0.0,0.7293128,0.63369346,-0.15195861,0.0,0.7852601,822.381,820.3663,591.9048,841.31866,552.8205,0.06060791015625,0.00604248046875,1.03875732421875,8.73291015625,-0.665435791015625,-11.49932861328125,1,1.0,1.0,2.0,1.0,40.00
2024-03-04 10:12:13.748,,,,,,,,,,,,,,,,,,,,,,,,,,,,,,,,,,,,,,/muse/elements/blink
2024-03-04 10:12:14.248,,,,,,,,,,,,,,,,,,,,,,,,,,,,,,,,,,,,,,/muse/elements/jaw_clench
2024-03-04 10:12:14.441,,,,,,,,,,,,,,,,,,,,,,,,,,,,,,,,,,,,,,/muse/elements/jaw_clench
2024-03-04 10:12:14.622,,,,,,,,,,,,,,,,,,,,,,,,,,,,,,,,,,,,,,/muse/elements/blink
2024-03-04 10:12:14.622,,,,,,,,,,,,,,,,,,,,,,,,,,,,,,,,,,,,,,/muse/elements/jaw_clench
2024-03-04 10:12:14.737,0.6091925,0.7373952,0.0,0.49845323,0.53162444,0.72473925,0.0,0.76915663,0.53400713,0.3978626,0.0,0.83949846,0.93504006,0.56866217,0.0,0.7293128,0.63369346,-0.15195861,0.0,0.7852601,904.9817,813.91943,890.07324,883.6264,1000.87915,0.010986328125,-0.05865478515625,1.01171875,-2.49725341796875,-0.657958984375,4.448699951171875,1,2.0,1.0,2.0,2.0,40.00
2024-03-04 10:12:15.739,,,,,,,,,,,,,,,,,,,,,,,,,,,,,,,,,,,,,,/muse/elements/jaw_clench
2024-03-04 10:12:15.744,0.6091925,0.7373952,0.0,0.49845323,0.53162444,0.72473925,0.0,0.76915663,0.53400713,0.3978626,0.0,0.83949846,0.93504006,0.56866217,0.0,0.7293128,0.63369346,-0.15195861,0.0,0.7852601,797.8022,828.022,596.7399,804.2491,547.5824,0.02740478515625,-0.1044921875,0.99493408203125,3.0804443359375,-1.682281494140625,-1.7047119140625,1,2.0,1.0,2.0,2.0,40.00
2024-03-04 10:12:16.754,0.6091925,0.7373952,0.0,0.49845323,0.53162444,0.72473925,0.0,0.76915663,0.53400713,0.3978626,0.0,0.83949846,0.93504006,0.56866217,0.0,0.7293128,0.63369346,-0.15195861,0.0,0.7852601,822.381,857.8388,994.43225,869.12085,932.7839,0.0360107421875,-0.03387451171875,1.0157470703125,2.52716064453125,-4.1571044921875,-3.461761474609375,1,2.0,1.0,2.0,2.0,40.00
2024-03-04 10:12:17.306,,,,,,,,,,,,,,,,,,,,,,,,,,,,,,,,,,,,,,/muse/elements/blink
2024-03-04 10:12:17.506,,,,,,,,,,,,,,,,,,,,,,,,,,,,,,,,,,,,,,/muse/elements/jaw_clench
2024-03-04 10:12:17.675,,,,,,,,,,,,,,,,,,,,,,,,,,,,,,,,,,,,,,/muse/elements/blink
2024-03-04 10:12:17.763,0.6091925,0.7373952,0.0,1.1330409,0.53162444,0.72473925,0.0,0.8484875,0.53400713,0.3978626,0.0,0.900361,0.93504006,0.56866217,0.0,1.0808138,0.63369346,-0.15195861,0.0,1.0782006,848.97437,800.2198,928.3516,879.19415,939.6337,0.03131103515625,-0.0296630859375,1.015380859375,1.951446533203125,0.770111083984375,-4.65057373046875,1,1.0,1.0,2.0,1.0,40.00
2024-03-04 10:12:18.411,,,,,,,,,,,,,,,,,,,,,,,,,,,,,,,,,,,,,,/muse/elements/blink
2024-03-04 10:12:18.776,0.6091925,0.7373952,0.0,1.1866239,0.53162444,0.72473925,0.0,0.9031274,0.53400713,0.3978626,0.0,0.900361,0.93504006,0.56866217,0.0,1.093282,0.63369346,-0.15195861,0.0,1.0920974,810.696,795.38464,443.22345,812.3077,613.2601,0.10394287109375,-0.02960205078125,1.0323486328125,-1.457977294921875,-2.2430419921875,-1.136474609375,1,1.0,1.0,2.0,1.0,40.00
2024-03-04 10:12:18.780,,,,,,,,,,,,,,,,,,,,,,,,,,,,,,,,,,,,,,/muse/elements/blink
2024-03-04 10:12:19.512,,,,,,,,,,,,,,,,,,,,,,,,,,,,,,,,,,,,,,/muse/elements/blink
2024-03-04 10:12:19.788,0.6091925,0.7373952,0.0,1.1866239,0.53162444,0.72473925,0.0,0.9031274,0.53400713,0.3978626,0.0,0.900361,0.93504006,0.56866217,0.0,1.093282,0.63369346,-0.15195861,0.0,1.0920974,865.09155,805.8608,955.34796,840.9158,964.61536,0.0550537109375,-0.0025634765625,1.01171875,-0.8074951171875,-1.973876953125,-1.62994384765625,1,2.0,1.0,2.0,2.0,40.00
2024-03-04 10:12:19.842,,,,,,,,,,,,,,,,,,,,,,,,,,,,,,,,,,,,,,/muse/elements/blink
2024-03-04 10:12:20.803,0.6091925,0.7373952,0.0,1.1866239,0.53162444,0.72473925,0.0,0.9031274,0.53400713,0.3978626,0.0,0.900361,0.93504006,0.56866217,0.0,1.093282,0.63369346,-0.15195861,0.0,1.0920974,758.315,836.4835,479.48718,722.8571,905.38464,0.052734375,-0.0225830078125,0.99859619140625,1.712188720703125,-3.790740966796875,0.216827392578125,1,2.0,1.0,2.0,2.0,40.00
2024-03-04 10:12:21.040,,,,,,,,,,,,,,,,,,,,,,,,,,,,,,,,,,,,,,/muse/elements/blink
2024-03-04 10:12:21.809,0.82241637,0.7373952,0.0,1.1866239,0.7883274,0.72473925,0.0,0.9031274,0.8446148,0.3978626,0.0,0.900361,1.2208371,0.56866217,0.0,1.093282,1.2105342,-0.15195861,0.0,1.0920974,788.93774,814.7253,881.6117,824.7985,1114.9084,0.0838623046875,-0.0018310546875,1.00604248046875,2.235565185546875,-4.508514404296875,-1.084136962890625,1,1.0,1.0,2.0,1.0,40.00
2024-03-04 10:12:22.821,0.6605263,0.8938407,0.0,0.6517973,0.6420957,0.73089737,0.0,0.7172931,0.94999266,0.4371741,0.0,1.0840929,1.147198,0.61868393,0.0,1.0306884,1.2164414,0.11916587,0.0,1.214282,786.52014,812.71063,908.20514,795.38464,796.1905,0.0682373046875,0.00762939453125,0.9925537109375,1.74957275390625,0.22430419921875,-1.487884521484375,1,1.0,1.0,2.0,1.0,40.00
2024-03-04 10:12:23.830,0.6043999,0.8170474,0.0,0.82426345,0.5866895,0.49026158,0.0,0.77966833,0.92317665,0.4943181,0.0,1.0991185,1.1094701,0.50068456,0.0,1.023919,1.0574918,0.13231951,0.0,1.2131997,828.4249,826.8132,829.6337,814.3223,699.89014,0.0267333984375,-0.007568359375,0.9993896484375,-0.426177978515625,-4.388885498046875,-1.472930908203125,1,1.0,1.0,2.0,1.0,40.00
2024-03-04 10:12:24.371,,,,,,,,,,,,,,,,,,,,,,,,,,,,,,,,,,,,,,/muse/elements/jaw_clench
2024-03-04 10:12:24.842,0.74153024,0.89287376,0.0,1.0226252,0.53586453,0.37326044,0.0,0.9165069,0.8652101,0.8265641,0.0,1.0426238,1.0863521,0.50512534,0.0,1.0149117,0.9492017,0.11856801,0.0,1.2401087,799.81683,809.4872,682.1612,811.0989,635.0183,0.0074462890625,-0.00787353515625,1.03082275390625,1.682281494140625,-5.659942626953125,-3.282318115234375,1,1.0,1.0,2.0,1.0,40.00
2024-03-04 10:12:25.861,0.74153024,1.2632997,0.0,1.0226252,0.53586453,0.66723925,0.0,0.9165069,0.8652101,0.9213345,0.0,1.0426238,1.0863521,0.5355922,0.0,1.0149117,0.9492017,0.11072366,0.0,1.2401087,768.3883,783.2967,545.9707,757.50916,569.34064,-3.0517578125E-4,-0.01287841796875,1.00299072265625,2.64678955078125,-5.166473388671875,1.136474609375,1,2.0,1.0,2.0,2.0,40.00
2024-03-04 10:12:26.018,,,,,,,,,,,,,,,,,,,,,,,,,,,,,,,,,,,,,,/muse/elements/blink
2024-03-04 10:12:26.872,1.2196895,1.1771848,0.0,1.2542182,0.9335108,0.4823537,0.0,0.7355431,1.2681707,0.70543087,0.0,0.8166569,1.070093,0.29208058,0.0,0.9667997,1.1414955,0.2010754,0.0,0.984973,796.99634,769.59705,809.0842,795.38464,747.03296,0.00579833984375,0.00299072265625,1.00543212890625,1.1962890625,-4.0374755859375,-1.727142333984375,1,1.0,1.0,2.0,1.0,40.00
2024-03-04 10:12:27.232,,,,,,,,,,,,,,,,,,,,,,,,,,,,,,,,,,,,,,/muse/elements/blink
2024-03-04 10:12:27.897,1.2196895,1.1771848,0.0,1.3229011,0.9335108,0.4823537,0.0,0.6872523,1.2681707,0.70543087,0.0,0.66581136,1.070093,0.29208058,0.0,0.94737506,1.1414955,0.2010754,0.0,0.9096565,807.47253,834.87177,649.5238,772.8205,651.9414,0.01629638671875,0.00262451171875,1.00311279296875,1.95892333984375,-4.62066650390625,-0.83740234375,1,1.0,1.0,2.0,1.0,40.00
2024-03-04 10:12:28.634,,,,,,,,,,,,,,,,,,,,,,,,,,,,,,,,,,,,,,/muse/elements/blink
