TimeStamp,Delta_TP9,Delta_AF7,Delta_AF8,Delta_TP10,Theta_TP9,Theta_AF7,Theta_AF8,Theta_TP10,Alpha_TP9,Alpha_AF7,Alpha_AF8,Alpha_TP10,Beta_TP9,Beta_AF7,Beta_AF8,Beta_TP10,Gamma_TP9,Gamma_AF7,Gamma_AF8,Gamma_TP10,RAW_TP9,RAW_AF7,RAW_AF8,RAW_TP10,AUX_RIGHT,Accelerometer_X,Accelerometer_Y,Accelerometer_Z,Gyro_X,Gyro_Y,Gyro_Z,HeadBandOn,HSI_TP9,HSI_AF7,HSI_AF8,HSI_TP10,Battery,Elements
2023-02-18 11:50:56.193,,,,,,,,,,,,,,,,,,,,,,,,,,,,,,,,,,,,,,/muse/event/connected Muse-99D3
2023-02-18 11:50:56.203,0.0,0.0,0.0,0.0,0.0,0.0,0.0,0.0,0.0,0.0,0.0,0.0,0.0,0.0,0.0,0.0,0.0,0.0,0.0,0.0,0.0,0.0,0.0,0.0,577.3993,0.01995849609375,0.20709228515625,1.09613037109375,7.080535888671875,-17.607879638671875,-0.2392578125,0,4.0,4.0,4.0,4.0,80.00
2023-02-18 11:50:57.215,0.0,0.0,0.0,0.0,0.0,0.0,0.0,0.0,0.0,0.0,0.0,0.0,0.0,0.0,0.0,0.0,0.0,0.0,0.0,0.0,1626.63,12.490843,1627.033,1620.1831,502.05127,0.07415771484375,0.0546875,1.03594970703125,15.731201171875,-20.3070068359375,-4.717864990234375,0,4.0,4.0,4.0,4.0,80.00
2023-02-18 11:50:57.332,,,,,,,,,,,,,,,,,,,,,,,,,,,,,,,,,,,,,,/muse/elements/blink
2023-02-18 11:50:57.332,,,,,,,,,,,,,,,,,,,,,,,,,,,,,,,,,,,,,,/muse/elements/jaw_clench
2023-02-18 11:50:57.625,,,,,,,,,,,,,,,,,,,,,,,,,,,,,,,,,,,,,,/muse/elements/blink
2023-02-18 11:50:57.868,,,,,,,,,,,,,,,,,,,,,,,,,,,,,,,,,,,,,,/muse/elements/blink
2023-02-18 11:50:58.027,,,,,,,,,,,,,,,,,,,,,,,,,,,,,,,,,,,,,,/muse/elements/blink
2023-02-18 11:50:58.223,0.0,0.0,0.0,0.0,0.0,0.0,0.0,0.0,0.0,0.0,0.0,0.0,0.0,0.0,0.0,0.0,0.0,0.0,0.0,0.0,1118.1318,961.39197,405.75092,1290.989,623.73627,0.1297607421875,0.08319091796875,1.00372314453125,1.024322509765625,-10.205841064453125,9.069366455078125,1,4.0,1.0,4.0,2.0,80.00
2023-02-18 11:50:58.249,,,,,,,,,,,,,,,,,,,,,,,,,,,,,,,,,,,,,,/muse/elements/blink
2023-02-18 11:50:59.232,0.0,0.0,0.0,0.0,0.0,0.0,0.0,0.0,0.0,0.0,0.0,0.0,0.0,0.0,0.0,0.0,0.0,0.0,0.0,0.0,0.0,948.0952,577.8022,1.2087913,626.9597,0.14599609375,0.072998046875,0.98699951171875,-7.8955078125,11.903076171875,-4.5458984375,1,4.0,1.0,1.0,2.0,80.00
2023-02-18 11:50:59.467,,,,,,,,,,,,,,,,,,,,,,,,,,,,,,,,,,,,,,/muse/elements/blink
2023-02-18 11:50:59.764,,,,,,,,,,,,,,,,,,,,,,,,,,,,,,,,,,,,,,/muse/elements/blink
2023-02-18 11:50:59.947,,,,,,,,,,,,,,,,,,,,,,,,,,,,,,,,,,,,,,/muse/elements/blink
2023-02-18 11:51:00.246,0.0,0.0,0.0,0.0,0.0,0.0,0.0,0.0,0.0,0.0,0.0,0.0,0.0,0.0,0.0,0.0,0.0,0.0,0.0,0.0,535.09155,1176.9597,640.2564,487.54578,865.09155,0.16326904296875,0.0601806640625,0.993408203125,0.2093505859375,0.037384033203125,-2.25799560546875,1,4.0,1.0,1.0,4.0,80.00
2023-02-18 11:51:00.280,,,,,,,,,,,,,,,,,,,,,,,,,,,,,,,,,,,,,,/muse/elements/blink
2023-02-18 11:51:00.747,,,,,,,,,,,,,,,,,,,,,,,,,,,,,,,,,,,,,,/muse/elements/blink
2023-02-18 11:51:01.159,,,,,,,,,,,,,,,,,,,,,,,,,,,,,,,,,,,,,,/muse/elements/blink
2023-02-18 11:51:01.247,0.0,0.0,0.0,0.0,0.0,0.0,0.0,0.0,0.0,0.0,0.0,0.0,0.0,0.0,0.0,0.0,0.0,0.0,0.0,0.0,1346.9963,381.5751,273.58975,22.564102,0.0,0.03326416015625,-0.02294921875,0.983154296875,-5.33843994140625,1.79443359375,6.512298583984375,1,4.0,1.0,1.0,4.0,80.00
2023-02-18 11:51:01.348,,,,,,,,,,,,,,,,,,,,,,,,,,,,,,,,,,,,,,/muse/elements/jaw_clench
2023-02-18 11:51:01.882,,,,,,,,,,,,,,,,,,,,,,,,,,,,,,,,,,,,,,/muse/elements/blink
2023-02-18 11:51:02.257,0.0,0.0,0.0,0.0,0.0,0.0,0.0,0.0,0.0,0.0,0.0,0.0,0.0,0.0,0.0,0.0,0.0,0.0,0.0,0.0,137.8022,745.82416,1263.9927,0.0,690.6227,-0.00494384765625,0.03460693359375,1.01580810546875,4.47113037109375,-8.314208984375,-6.86370849609375,1,4.0,1.0,1.0,4.0,80.00
2023-02-18 11:51:02.316,,,,,,,,,,,,,,,,,,,,,,,,,,,,,,,,,,,,,,/muse/elements/jaw_clench
2023-02-18 11:51:02.376,,,,,,,,,,,,,,,,,,,,,,,,,,,,,,,,,,,,,,/muse/elements/blink
2023-02-18 11:51:02.744,,,,,,,,,,,,,,,,,,,,,,,,,,,,,,,,,,,,,,/muse/elements/blink
2023-02-18 11:51:03.263,0.0,0.0,0.0,0.0,0.0,0.0,0.0,0.0,0.0,0.0,0.0,0.0,0.0,0.0,0.0,0.0,0.0,0.0,0.0,0.0,0.0,0.0,1627.033,0.0,883.22345,0.04827880859375,-0.01300048828125,1.0020751953125,11.581573486328125,-13.876953125,-7.10296630859375,1,4.0,1.0,4.0,4.0,80.00
2023-02-18 11:51:04.263,0.0,0.0,0.0,0.0,0.0,0.0,0.0,0.0,0.0,0.0,0.0,0.0,0.0,0.0,0.0,0.0,0.0,0.0,0.0,0.0,1370.7693,1627.033,1627.4359,943.2601,827.619,0.1651611328125,-0.00250244140625,1.0020751953125,1.7645263671875,7.61138916015625,-3.22998046875,1,4.0,4.0,4.0,4.0,80.00
2023-02-18 11:51:05.265,0.0,0.0,0.0,0.0,0.0,0.0,0.0,0.0,0.0,0.0,0.0,0.0,0.0,0.0,0.0,0.0,0.0,0.0,0.0,0.0,0.0,1628.2417,1612.5275,0.0,630.989,0.15045166015625,-0.069091796875,0.97454833984375,5.00946044921875,-16.546173095703125,-3.529052734375,0,4.0,4.0,4.0,4.0,80.00
2023-02-18 11:51:06.273,0.0,0.0,0.0,0.0,0.0,0.0,0.0,0.0,0.0,0.0,0.0,0.0,0.0,0.0,0.0,0.0,0.0,0.0,0.0,0.0,1494.8718,1052.4542,533.47986,1055.2748,949.304,0.1285400390625,0.0101318359375,0.99468994140625,5.203857421875,-0.9869384765625,3.00567626953125,0,4.0,4.0,4.0,4.0,85.00
2023-02-18 11:51:07.282,0.0,0.0,0.0,0.0,0.0,0.0,0.0,0.0,0.0,0.0,0.0,0.0,0.0,0.0,0.0,0.0,0.0,0.0,0.0,0.0,0.0,1627.033,1064.9451,460.9524,788.5348,0.0694580078125,-0.0445556640625,0.982177734375,-5.973968505859375,-0.426177978515625,8.112335205078125,0,4.0,4.0,4.0,4.0,85.00
2023-02-18 11:51:07.932,,,,,,,,,,,,,,,,,,,,,,,,,,,,,,,,,,,,,,/muse/elements/blink
2023-02-18 11:51:08.295,0.0,0.0,0.0,0.0,0.0,0.0,0.0,0.0,0.0,0.0,0.0,0.0,0.0,0.0,0.0,0.0,0.0,0.0,0.0,0.0,469.011,641.4652,1480.7693,701.50183,573.36993,0.00457763671875,-0.0947265625,1.0045166015625,0.07476806640625,-4.254302978515625,-4.91973876953125,1,4.0,1.0,4.0,4.0,85.00
2023-02-18 11:51:08.550,,,,,,,,,,,,,,,,,,,,,,,,,,,,,,,,,,,,,,/muse/elements/blink
2023-02-18 11:51:09.297,0.0,0.0,0.0,0.0,0.0,0.0,0.0,0.0,0.0,0.0,0.0,0.0,0.0,0.0,0.0,0.0,0.0,0.0,0.0,0.0,809.4872,887.25275,353.36996,866.7033,713.5897,-0.10205078125,-0.07952880859375,1.00518798828125,-2.452392578125,1.36077880859375,19.15557861328125,1,2.0,1.0,4.0,2.0,85.00
2023-02-18 11:51:09.533,,,,,,,,,,,,,,,,,,,,,,,,,,,,,,,,,,,,,,/muse/elements/blink
2023-02-18 11:51:10.297,0.0,0.0,0.0,0.0,0.0,0.0,0.0,0.0,0.0,0.0,0.0,0.0,0.0,0.0,0.0,0.0,0.0,0.0,0.0,0.0,723.663,780.87915,343.69965,744.21246,902.96704,0.00225830078125,-0.13238525390625,0.99188232421875,5.465545654296875,-9.31610107421875,-3.715972900390625,1,2.0,1.0,2.0,2.0,85.00
2023-02-18 11:51:10.730,,,,,,,,,,,,,,,,,,,,,,,,,,,,,,,,,,,,,,/muse/elements/blink
2023-02-18 11:51:11.307,0.0,0.9976937,0.0,0.0,0.0,0.6219963,0.0,0.0,0.0,0.767196,0.0,0.0,0.0,0.21340814,0.0,0.0,0.0,-0.13028407,0.0,0.0,628.1685,821.5751,338.86447,619.304,667.25275,-0.1241455078125,-0.0677490234375,1.00341796875,12.261962890625,-2.235565185546875,-26.497802734375,1,2.0,1.0,2.0,2.0,85.00
2023-02-18 11:51:11.847,,,,,,,,,,,,,,,,,,,,,,,,,,,,,,,,,,,,,,/muse/elements/blink
2023-02-18 11:51:12.216,,,,,,,,,,,,,,,,,,,,,,,,,,,,,,,,,,,,,,/muse/elements/blink
2023-02-18 11:51:12.317,0.0,1.0663838,0.0,0.0,0.0,0.7220501,0.0,0.0,0.0,0.7985247,0.0,0.0,0.0,0.23383753,0.0,0.0,0.0,-0.14979038,0.0,0.0,747.4359,826.4103,280.03662,544.35895,899.34064,0.01177978515625,-0.10931396484375,1.020751953125,-1.5252685546875,3.177642822265625,0.127105712890625,1,2.0,1.0,2.0,2.0,85.00
2023-02-18 11:51:12.383,,,,,,,,,,,,,,,,,,,,,,,,,,,,,,,,,,,,,,/muse/elements/blink
2023-02-18 11:51:12.904,,,,,,,,,,,,,,,,,,,,,,,,,,,,,,,,,,,,,,/muse/elements/blink
2023-02-18 11:51:13.329,0.0,1.1018444,0.0,0.0,0.0,0.7849668,0.0,0.0,0.0,0.73095274,0.0,0.0,0.0,0.25085157,0.0,0.0,0.0,-0.18619706,0.0,0.0,573.36993,660.0,0.0,584.2491,858.24176,-0.0252685546875,-0.091796875,0.9876708984375,-15.74615478515625,-9.749755859375,-4.583282470703125,1,4.0,1.0,4.0,2.0,85.00
2023-02-18 11:51:13.499,,,,,,,,,,,,,,,,,,,,,,,,,,,,,,,,,,,,,,/muse/elements/blink
2023-02-18 11:51:13.703,,,,,,,,,,,,,,,,,,,,,,,,,,,,,,,,,,,,,,/muse/elements/blink
2023-02-18 11:51:14.119,,,,,,,,,,,,,,,,,,,,,,,,,,,,,,,,,,,,,,/muse/elements/blink
2023-02-18 11:51:14.329,0.0,1.1018444,0.0,0.0,0.0,0.7849668,0.0,0.0,0.0,0.73095274,0.0,0.0,0.0,0.25085157,0.0,0.0,0.0,-0.18619706,0.0,0.0,581.02563,765.9707,768.7912,552.4176,580.6227,0.0828857421875,-0.0888671875,0.9842529296875,7.708587646484375,-3.386993408203125,12.359161376953125,1,4.0,1.0,4.0,2.0,85.00
2023-02-18 11:51:14.642,,,,,,,,,,,,,,,,,,,,,,,,,,,,,,,,,,,,,,/muse/elements/blink
2023-02-18 11:51:14.832,,,,,,,,,,,,,,,,,,,,,,,,,,,,,,,,,,,,,,/muse/elements/blink
2023-02-18 11:51:15.332,0.0,1.1018444,0.0,0.0,0.0,0.7849668,0.0,0.0,0.0,0.73095274,0.0,0.0,0.0,0.25085157,0.0,0.0,0.0,-0.18619706,0.0,0.0,625.34796,795.78754,694.65204,725.6777,837.6923,-0.18548583984375,-0.037353515625,0.99981689453125,1.48040771484375,-3.57391357421875,3.9776611328125,1,2.0,1.0,1.0,2.0,85.00
2023-02-18 11:51:15.869,,,,,,,,,,,,,,,,,,,,,,,,,,,,,,,,,,,,,,/muse/elements/blink
2023-02-18 11:51:16.340,0.0,0.75270087,0.0,1.4604551,0.0,0.30012807,0.0,1.2300111,0.0,0.30798447,0.0,1.0324345,0.0,0.31983143,0.0,1.1596401,0.0,0.006534345,0.0,1.0106943,597.1429,818.7546,728.9011,624.94507,573.7729,-0.22021484375,-0.03717041015625,0.98284912109375,6.47491455078125,-1.4654541015625,0.49346923828125,1,2.0,1.0,1.0,2.0,85.00
2023-02-18 11:51:17.266,,,,,,,,,,,,,,,,,,,,,,,,,,,,,,,,,,,,,,/muse/elements/blink
2023-02-18 11:51:17.351,0.0,0.89625454,0.0,1.4604551,0.0,0.35215297,0.0,1.2300111,0.0,0.3335792,0.0,1.0324345,0.0,0.25110868,0.0,1.1596401,0.0,-0.06680562,0.0,1.0106943,705.12823,799.81683,444.83517,741.39197,706.7399,-0.17578125,-0.04150390625,0.9661865234375,5.301055908203125,0.889739990234375,2.459869384765625,1,1.0,1.0,1.0,1.0,85.00
2023-02-18 11:51:18.364,0.0,1.2236763,0.0,1.4604551,0.0,0.8532551,0.0,1.2300111,0.0,0.22028811,0.0,1.0324345,0.0,0.20978151,0.0,1.1596401,0.0,-0.1731166,0.0,1.0106943,695.4579,846.1539,644.2857,702.71063,790.54944,-0.215087890625,-0.07037353515625,0.9700927734375,-0.785064697265625,-1.472930908203125,5.226287841796875,1,1.0,1.0,1.0,1.0,85.00
2023-02-18 11:51:18.499,,,,,,,,,,,,,,,,,,,,,,,,,,,,,,,,,,,,,,/muse/elements/blink
2023-02-18 11:51:19.266,,,,,,,,,,,,,,,,,,,,,,,,,,,,,,,,,,,,,,/muse/elements/blink
2023-02-18 11:51:19.368,0.0,1.1797004,0.0,1.4604551,0.0,0.5827298,0.0,1.2300111,0.0,0.1859134,0.0,1.0324345,0.0,0.19097365,0.0,1.1596401,0.0,-0.14506562,0.0,1.0106943,829.6337,855.42126,472.63736,828.8278,924.3223,-0.21746826171875,-0.0445556640625,0.98040771484375,2.37762451171875,-8.815155029296875,-4.344024658203125,1,2.0,1.0,1.0,2.0,85.00
2023-02-18 11:51:19.799,,,,,,,,,,,,,,,,,,,,,,,,,,,,,,,,,,,,,,/muse/elements/blink
2023-02-18 11:51:19.983,,,,,,,,,,,,,,,,,,,,,,,,,,,,,,,,,,,,,,/muse/elements/blink
2023-02-18 11:51:20.375,0.0,0.65523994,0.0,1.4604551,0.0,0.22639857,0.0,1.2300111,0.0,0.3912554,0.0,1.0324345,0.0,-0.07939176,0.0,1.1596401,0.0,-0.5148663,0.0,1.0106943,756.7033,815.5311,721.6484,840.10986,777.6557,-0.1778564453125,-0.0244140625,0.9854736328125,0.964508056640625,-3.7982177734375,-0.79254150390625,1,2.0,1.0,2.0,2.0,85.00
2023-02-18 11:51:21.334,,,,,,,,,,,,,,,,,,,,,,,,,,,,,,,,,,,,,,/muse/elements/blink
2023-02-18 11:51:21.382,0.0,0.8122806,0.0,0.7465403,0.0,0.34753633,0.0,0.5813012,0.0,0.4429308,0.0,1.2255472,0.0,0.053658493,0.0,1.1725835,0.0,-0.27610454,0.0,0.95284146,655.9707,831.6484,573.36993,676.52014,481.0989,-0.1688232421875,-0.03314208984375,0.99114990234375,1.77947998046875,-4.127197265625,0.306549072265625,1,1.0,1.0,1.0,1.0,85.00
2023-02-18 11:51:21.600,,,,,,,,,,,,,,,,,,,,,,,,,,,,,,,,,,,,,,/muse/elements/blink
2023-02-18 11:51:22.382,0.0,0.7845505,0.0,0.7714899,0.0,0.4431229,0.0,0.59918565,0.0,0.55721134,0.0,1.1985707,0.0,0.12430588,0.0,1.1610876,0.0,-0.31982613,0.0,0.9780118,757.1062,827.2161,639.85345,798.60803,946.08057,-0.1724853515625,-0.03521728515625,0.9910888671875,0.79254150390625,-4.007568359375,-1.80938720703125,1,1.0,1.0,1.0,1.0,85.00
2023-02-18 11:51:22.402,,,,,,,,,,,,,,,,,,,,,,,,,,,,,,,,,,,,,,/muse/elements/blink
2023-02-18 11:51:23.382,1.1077194,0.5410598,0.0,0.91342586,0.8810156,0.19954325,0.0,0.684261,1.073409,0.25970608,0.0,0.43498385,0.6403031,0.1681399,0.0,0.98489094,0.07469921,-0.2859354,0.0,0.61042285,815.12823,834.0659,715.6044,838.49817,854.21246,-0.1822509765625,-0.04425048828125,0.9866943359375,0.897216796875,-2.88604736328125,-0.874786376953125,1,1.0,1.0,1.0,1.0,85.00
2023-02-18 11:51:23.477,,,,,,,,,,,,,,,,,,,,,,,,,,,,,,,,,,,,,,/muse/elements/blink
2023-02-18 11:51:23.635,,,,,,,,,,,,,,,,,,,,,,,,,,,,,,,,,,,,,,/muse/elements/blink
2023-02-18 11:51:23.867,,,,,,,,,,,,,,,,,,,,,,,,,,,,,,,,,,,,,,/muse/elements/blink
2023-02-18 11:51:24.390,1.062079,1.0279545,0.0,0.91342586,0.92258704,0.97041947,0.0,0.684261,1.0658528,0.8633231,0.0,0.43498385,0.6281722,0.24749789,0.0,0.98489094,0.094912514,-0.17143008,0.0,0.61042285,657.98535,819.5604,645.89746,660.0,506.48352,-0.15264892578125,-0.02288818359375,0.97833251953125,3.087921142578125,-4.478607177734375,0.43365478515625,1,1.0,1.0,1.0,1.0,85.00
2023-02-18 11:51:25.100,,,,,,,,,,,,,,,,,,,,,,,,,,,,,,,,,,,,,,/muse/elements/blink
2023-02-18 11:51:25.400,1.062079,0.6336011,0.0,0.7604458,0.92258704,0.3461957,0.0,0.8996786,1.0658528,0.5671658,0.0,0.5468103,0.6281722,0.050505646,0.0,0.98094326,0.094912514,-0.21503223,0.0,0.61954635,757.50916,830.0366,581.02563,825.6044,916.26373,-0.19561767578125,-0.00341796875,0.976318359375,2.87109375,-6.930999755859375,-0.605621337890625,1,1.0,1.0,1.0,1.0,85.00
2023-02-18 11:51:26.399,,,,,,,,,,,,,,,,,,,,,,,,,,,,,,,,,,,,,,/muse/elements/blink
2023-02-18 11:51:26.407,1.062079,0.30604827,0.0,0.7604458,0.92258704,0.084104106,0.0,0.8996786,1.0658528,0.52335274,0.0,0.5468103,0.6281722,0.18524726,0.0,0.98094326,0.094912514,-0.18263343,0.0,0.61954635,698.2784,812.3077,746.63007,710.3663,603.9927,-0.17205810546875,-0.02008056640625,0.97406005859375,-0.635528564453125,-3.237457275390625,1.069183349609375,1,1.0,1.0,1.0,1.0,85.00
2023-02-18 11:51:27.412,0.984729,-0.012348446,0.0,0.48963326,1.0113366,0.10366561,0.0,1.0693862,0.62357765,0.2910188,0.0,1.005005,0.42032474,0.21221307,0.0,1.0117934,0.22342806,-0.15711592,0.0,0.8582468,693.44324,827.2161,717.2161,674.10254,578.60803,-0.18145751953125,-0.0101318359375,0.995849609375,0.800018310546875,-3.8580322265625,-2.332763671875,1,1.0,1.0,1.0,1.0,80.00
2023-02-18 11:51:27.797,,,,,,,,,,,,,,,,,,,,,,,,,,,,,,,,,,,,,,/muse/elements/blink
2023-02-18 11:51:28.417,1.0407152,0.66577464,0.0,0.34626305,0.9074378,0.8718308,0.0,1.1251621,0.65561765,0.5821904,0.0,0.92265266,0.40870392,0.26022264,0.0,0.99161106,0.083152406,-0.24869026,0.0,0.7244964,752.27106,804.65204,868.71796,811.50183,886.8498,0.00830078125,0.00775146484375,0.9781494140625,5.03936767578125,-29.421234130859375,-21.540679931640625,1,1.0,1.0,1.0,1.0,80.00
2023-02-18 11:51:28.845,,,,,,,,,,,,,,,,,,,,,,,,,,,,,,,,,,,,,,/muse/elements/blink
2023-02-18 11:51:29.114,,,,,,,,,,,,,,,,,,,,,,,,,,,,,,,,,,,,,,/muse/elements/blink
2023-02-18 11:51:29.432,1.0963634,0.98527026,0.0,0.34323224,0.81895643,0.9974837,0.0,1.1282434,0.616942,0.64221114,0.0,0.8617864,0.39847183,0.22047704,0.0,0.9332532,-0.013592252,-0.1697705,0.0,0.7083762,770.40295,796.99634,670.87915,783.2967,666.8498,-0.1224365234375,-0.01861572265625,1.00164794921875,1.27105712890625,-5.263671875,-1.128997802734375,1,1.0,1.0,1.0,1.0,80.00
2023-02-18 11:51:29.465,,,,,,,,,,,,,,,,,,,,,,,,,,,,,,,,,,,,,,/muse/elements/blink
2023-02-18 11:51:30.334,,,,,,,,,,,,,,,,,,,,,,,,,,,,,,,,,,,,,,/muse/elements/blink
2023-02-18 11:51:30.441,1.0963634,1.1441482,0.0,0.34323224,0.81895643,0.82100713,0.0,1.1282434,0.616942,0.5025531,0.0,0.8617864,0.39847183,0.22159615,0.0,0.9332532,-0.013592252,0.0039004507,0.0,0.7083762,792.1612,818.7546,1101.2087,870.7326,788.93774,-0.27032470703125,-0.062744140625,1.05828857421875,14.632110595703125,-28.763275146484375,-6.975860595703125,1,2.0,1.0,1.0,2.0,80.00
2023-02-18 11:51:30.582,,,,,,,,,,,,,,,,,,,,,,,,,,,,,,,,,,,,,,/muse/elements/blink
2023-02-18 11:51:31.448,1.6786325,1.1972803,0.0,0.34323224,1.7491606,0.7441743,0.0,1.1282434,1.3991839,0.46008387,0.0,0.8617864,1.2645512,0.24374317,0.0,0.9332532,0.65349543,0.1115267,0.0,0.7083762,809.0842,820.7692,624.5421,809.89014,870.7326,-0.0850830078125,-0.07733154296875,1.0072021484375,6.123504638671875,-3.850555419921875,-4.538421630859375,1,1.0,1.0,2.0,1.0,80.00
2023-02-18 11:51:31.565,,,,,,,,,,,,,,,,,,,,,,,,,,,,,,,,,,,,,,/muse/elements/blink
2023-02-18 11:51:31.882,,,,,,,,,,,,,,,,,,,,,,,,,,,,,,,,,,,,,,/muse/elements/blink
2023-02-18 11:51:32.457,1.7189107,1.0287682,0.0,0.34323224,1.6934862,0.6009613,0.0,1.1282434,1.3857679,0.21187308,0.0,0.8617864,1.2482718,0.10809691,0.0,0.9332532,0.5503505,-0.26532218,0.0,0.7083762,806.26373,804.65204,190.98901,810.696,655.56775,-0.09527587890625,-0.0640869140625,0.995361328125,1.03179931640625,-2.684173583984375,1.42059326171875,1,1.0,1.0,1.0,1.0,80.00
2023-02-18 11:51:32.581,,,,,,,,,,,,,,,,,,,,,,,,,,,,,,,,,,,,,,/muse/elements/blink
2023-02-18 11:51:33.214,,,,,,,,,,,,,,,,,,,,,,,,,,,,,,,,,,,,,,/muse/elements/blink
2023-02-18 11:51:33.468,1.7819755,1.1172128,0.0,0.34323224,1.6756777,0.68161935,0.0,1.1282434,1.3611069,0.21086605,0.0,0.8617864,1.2477903,0.14401571,0.0,0.9332532,0.48332578,-0.30822772,0.0,0.7083762,790.14655,823.1868,944.4689,828.4249,697.0696,-0.1158447265625,-0.03466796875,1.00677490234375,1.039276123046875,-3.2000732421875,-1.443023681640625,1,1.0,1.0,1.0,1.0,80.00
2023-02-18 11:51:33.699,,,,,,,,,,,,,,,,,,,,,,,,,,,,,,,,,,,,,,/muse/elements/blink
2023-02-18 11:51:33.900,,,,,,,,,,,,,,,,,,,,,,,,,,,,,,,,,,,,,,/muse/elements/blink
2023-02-18 11:51:34.476,1.7819755,1.1899818,0.0,0.34323224,1.6756777,1.5555013,0.0,1.1282434,1.3611069,1.1142629,0.0,0.8617864,1.2477903,0.24302413,0.0,0.9332532,0.48332578,0.011252461,0.0,0.7083762,730.5128,842.52747,755.4945,711.978,794.57874,-0.138427734375,-0.0347900390625,0.9642333984375,4.837493896484375,-0.299072265625,-6.0113525390625,1,2.0,1.0,1.0,2.0,80.00
2023-02-18 11:51:35.482,1.7819755,1.3215262,0.0,0.34323224,1.6756777,1.4546286,0.0,1.1282434,1.3611069,1.1346724,0.0,0.8617864,1.2477903,0.24804083,0.0,0.9332532,0.48332578,-0.15332027,0.0,0.7083762,759.92676,824.3956,749.45056,868.71796,929.15753,-0.11676025390625,-0.0570068359375,1.01287841796875,1.18133544921875,-0.411224365234375,-0.478515625,1,2.0,1.0,1.0,2.0,80.00
2023-02-18 11:51:35.734,,,,,,,,,,,,,,,,,,,,,,,,,,,,,,,,,,,,,,/muse/elements/blink
2023-02-18 11:51:36.068,,,,,,,,,,,,,,,,,,,,,,,,,,,,,,,,,,,,,,/muse/elements/blink
2023-02-18 11:51:36.483,1.7819755,1.5431831,0.0,0.34323224,1.6756777,1.3648412,0.0,1.1282434,1.3611069,1.2382836,0.0,0.8617864,1.2477903,0.2596899,0.0,0.9332532,0.48332578,-0.24092756,0.0,0.7083762,775.64105,826.4103,755.4945,877.1795,740.989,-0.06549072265625,0.02484130859375,0.94183349609375,1.74957275390625,-0.04486083984375,9.70489501953125,1,2.0,1.0,1.0,2.0,80.00
2023-02-18 11:51:36.768,,,,,,,,,,,,,,,,,,,,,,,,,,,,,,,,,,,,,,/muse/elements/blink
2023-02-18 11:51:37.167,,,,,,,,,,,,,,,,,,,,,,,,,,,,,,,,,,,,,,/muse/elements/blink
2023-02-18 11:51:37.493,1.7819755,1.7901036,0.0,0.34323224,1.6756777,1.6518015,0.0,1.1282434,1.3611069,1.1997154,0.0,0.8617864,1.2477903,0.37437764,0.0,0.9332532,0.48332578,-0.20219107,0.0,0.7083762,765.16486,807.0696,680.14655,788.1319,784.10254,-0.13629150390625,-0.01837158203125,0.98736572265625,1.757049560546875,-4.179534912109375,-3.177642822265625,1,2.0,1.0,1.0,2.0,85.00
2023-02-18 11:51:37.870,,,,,,,,,,,,,,,,,,,,,,,,,,,,,,,,,,,,,,/muse/elements/blink
2023-02-18 11:51:38.070,,,,,,,,,,,,,,,,,,,,,,,,,,,,,,,,,,,,,,/muse/elements/blink
2023-02-18 11:51:38.269,,,,,,,,,,,,,,,,,,,,,,,,,,,,,,,,,,,,,,/muse/elements/blink
2023-02-18 11:51:38.500,1.7819755,1.8165115,0.0,0.34323224,1.6756777,1.6678798,0.0,1.1282434,1.3611069,1.1886444,0.0,0.8617864,1.2477903,0.37153253,0.0,0.9332532,0.48332578,-0.15058278,0.0,0.7083762,834.87177,830.4396,749.85345,875.9707,965.42126,-0.13427734375,-0.0184326171875,0.999755859375,-0.64300537109375,-1.786956787109375,-1.353302001953125,1,2.0,1.0,1.0,2.0,85.00
2023-02-18 11:51:39.286,,,,,,,,,,,,,,,,,,,,,,,,,,,,,,,,,,,,,,/muse/elements/blink
2023-02-18 11:51:39.516,1.7819755,1.8165115,0.0,0.34323224,1.6756777,1.6678798,0.0,1.1282434,1.3611069,1.1886444,0.0,0.8617864,1.2477903,0.37153253,0.0,0.9332532,0.48332578,-0.15058278,0.0,0.7083762,785.31134,842.52747,828.022,840.5128,863.8828,-0.1629638671875,-0.02203369140625,1.0003662109375,1.4056396484375,-3.60382080078125,-0.0897216796875,1,2.0,1.0,1.0,2.0,85.00
2023-02-18 11:51:39.618,,,,,,,,,,,,,,,,,,,,,,,,,,,,,,,,,,,,,,/muse/elements/blink
2023-02-18 11:51:39.786,,,,,,,,,,,,,,,,,,,,,,,,,,,,,,,,,,,,,,/muse/elements/blink
2023-02-18 11:51:40.525,1.7819755,1.1382371,0.0,0.34323224,1.6756777,0.8003978,0.0,1.1282434,1.3611069,0.84264266,0.0,0.8617864,1.2477903,0.06709164,0.0,0.9332532,0.48332578,-0.020714177,0.0,0.7083762,776.4469,826.8132,708.3516,790.14655,728.0952,-0.16583251953125,-0.02801513671875,0.9918212890625,2.385101318359375,-4.239349365234375,0.2093505859375,1,2.0,1.0,1.0,2.0,85.00
2023-02-18 11:51:41.114,,,,,,,,,,,,,,,,,,,,,,,,,,,,,,,,,,,,,,/muse/elements/blink
2023-02-18 11:51:41.528,1.7819755,0.067830674,0.0,1.0133648,1.6756777,0.15794504,0.0,0.8138726,1.3611069,0.39873785,0.0,0.83394694,1.2477903,-0.020709997,0.0,0.73154193,0.48332578,-0.081020676,0.0,0.8125587,793.7729,836.8865,735.7509,871.53845,945.6777,-0.14190673828125,-0.0164794921875,0.99755859375,-0.560760498046875,-3.551483154296875,-0.7476806640625,1,1.0,1.0,1.0,1.0,85.00
2023-02-18 11:51:42.050,,,,,,,,,,,,,,,,,,,,,,,,,,,,,,,,,,,,,,/muse/elements/blink
2023-02-18 11:51:42.531,1.7819755,0.30121365,0.0,1.1132478,1.6756777,0.3168699,0.0,0.84729666,1.3611069,0.29145315,0.0,0.7863367,1.2477903,0.020139731,0.0,0.6131394,0.48332578,-0.17437688,0.0,0.85727763,779.67035,850.989,756.7033,744.61536,474.24908,-0.168212890625,-0.0357666015625,0.9764404296875,0.2691650390625,-3.282318115234375,-0.142059326171875,1,1.0,1.0,1.0,1.0,85.00
2023-02-18 11:51:43.542,1.3409424,0.80468285,0.918149,1.0467669,1.2753574,0.34187558,0.4595362,1.1195863,1.0917858,0.50284475,0.52936506,0.87323564,0.81658334,0.18709567,0.737835,0.83954626,0.55453223,-0.1427958,0.5273991,0.8051049,793.36993,846.9597,782.49084,811.0989,637.8388,-0.17572021484375,-0.00628662109375,0.9940185546875,1.016845703125,-5.5328369140625,-0.34393310546875,1,1.0,1.0,1.0,1.0,85.00
2023-02-18 11:51:43.650,,,,,,,,,,,,,,,,,,,,,,,,,,,,,,,,,,,,,,/muse/elements/blink
2023-02-18 11:51:44.250,,,,,,,,,,,,,,,,,,,,,,,,,,,,,,,,,,,,,,/muse/elements/blink
2023-02-18 11:51:44.547,1.2751774,0.6709085,0.71986514,0.8434179,1.2161018,0.369977,0.330961,1.04038,1.0932212,0.5644554,0.60569185,0.9284649,0.7619751,0.09837751,0.8445863,0.9830718,0.44278613,-0.08577793,0.6666139,0.7734859,820.7692,833.2601,792.96704,837.28937,765.56775,-0.1663818359375,-0.00762939453125,0.9879150390625,0.9271240234375,-3.6785888671875,-0.859832763671875,1,1.0,1.0,1.0,1.0,85.00
2023-02-18 11:51:45.115,,,,,,,,,,,,,,,,,,,,,,,,,,,,,,,,,,,,,,/muse/elements/blink
2023-02-18 11:51:45.558,1.2931168,0.5035362,0.3211319,0.4482663,0.9944666,0.38566315,0.31032965,0.769391,0.6359465,0.3850277,0.14482476,0.64320916,0.7144636,-0.08163215,0.7782224,1.0391929,0.34080535,-0.0136323385,0.663864,0.7738467,723.2601,834.0659,795.38464,760.7326,546.77655,-0.186767578125,-0.013671875,1.004150390625,0.829925537109375,-4.239349365234375,-2.4822998046875,1,1.0,1.0,1.0,1.0,85.00
2023-02-18 11:51:45.815,,,,,,,,,,,,,,,,,,,,,,,,,,,,,,,,,,,,,,/muse/elements/blink
2023-02-18 11:51:46.182,,,,,,,,,,,,,,,,,,,,,,,,,,,,,,,,,,,,,,/muse/elements/blink
2023-02-18 11:51:46.563,1.2931168,0.5035362,0.3211319,0.4482663,0.9944666,0.38566315,0.31032965,0.769391,0.6359465,0.3850277,0.14482476,0.64320916,0.7144636,-0.08163215,0.7782224,1.0391929,0.34080535,-0.0136323385,0.663864,0.7738467,703.5165,880.80585,848.97437,791.75824,907.8022,-0.17828369140625,-0.02423095703125,0.9912109375,0.620574951171875,-3.66363525390625,-1.592559814453125,1,1.0,1.0,1.0,1.0,85.00
2023-02-18 11:51:46.784,,,,,,,,,,,,,,,,,,,,,,,,,,,,,,,,,,,,,,/muse/elements/blink
2023-02-18 11:51:47.015,,,,,,,,,,,,,,,,,,,,,,,,,,,,,,,,,,,,,,/muse/elements/blink
2023-02-18 11:51:47.563,1.2931168,1.3542433,0.84284186,0.4482663,0.9944666,1.5335985,1.0217704,0.769391,0.6359465,1.3040825,0.9914234,0.64320916,0.7144636,0.5098027,1.11368,1.0391929,0.34080535,-0.29295427,0.7924117,0.7738467,753.47986,833.2601,835.6777,839.304,861.06226,-0.1678466796875,-0.02618408203125,0.994384765625,1.084136962890625,-3.2598876953125,-0.73272705078125,1,2.0,1.0,1.0,2.0,85.00
2023-02-18 11:51:47.817,,,,,,,,,,,,,,,,,,,,,,,,,,,,,,,,,,,,,,/muse/elements/blink
2023-02-18 11:51:48.578,1.2931168,1.2984103,0.8969884,0.4482663,0.9944666,1.480438,0.9933055,0.769391,0.6359465,1.3040825,0.98773366,0.64320916,0.7144636,0.4870367,1.0416677,1.0391929,0.34080535,-0.34104034,0.7149986,0.7738467,834.87177,825.2015,835.2747,925.12823,912.23444,-0.1641845703125,-0.0216064453125,0.9893798828125,1.48040771484375,-4.02252197265625,-1.734619140625,1,2.0,1.0,1.0,2.0,85.00
2023-02-18 11:51:48.613,,,,,,,,,,,,,,,,,,,,,,,,,,,,,,,,,,,,,,/muse/elements/blink
2023-02-18 11:51:49.590,1.2931168,1.0762283,0.9228494,0.4482663,0.9944666,0.9665418,0.78256804,0.769391,0.6359465,0.73972505,0.53771377,0.64320916,0.7144636,0.13221812,0.81837237,1.0391929,0.34080535,-0.026411524,0.4119848,0.7738467,708.7546,841.7216,834.87177,798.20514,689.41394,-0.109130859375,-0.06646728515625,1.04046630859375,-9.70489501953125,-3.6187744140625,12.344207763671875,1,2.0,1.0,1.0,2.0,85.00
2023-02-18 11:51:49.845,,,,,,,,,,,,,,,,,,,,,,,,,,,,,,,,,,,,,,/muse/elements/blink
2023-02-18 11:51:50.594,1.2931168,1.0622771,0.8058052,0.4482663,0.9944666,0.71885204,0.23620155,0.769391,0.6359465,0.47238722,0.4191853,0.64320916,0.7144636,0.0887901,0.87681323,1.0391929,0.34080535,-0.120935984,0.44249448,0.7738467,805.8608,838.9011,1502.1245,889.67035,701.50183,-0.12847900390625,-0.074462890625,0.95556640625,6.11602783203125,-7.07305908203125,-10.57220458984375,1,2.0,1.0,1.0,2.0,85.00
2023-02-18 11:51:51.046,,,,,,,,,,,,,,,,,,,,,,,,,,,,,,,,,,,,,,/muse/elements/blink
2023-02-18 11:51:51.270,,,,,,,,,,,,,,,,,,,,,,,,,,,,,,,,,,,,,,/muse/elements/blink
2023-02-18 11:51:51.594,1.2931168,1.1941516,0.8058052,0.4482663,0.9944666,1.2231126,0.23620155,0.769391,0.6359465,1.0882819,0.4191853,0.64320916,0.7144636,0.20322837,0.87681323,1.0391929,0.34080535,-0.23263562,0.44249448,0.7738467,803.0403,832.8571,891.685,850.18317,829.6337,-0.17376708984375,-0.1175537109375,0.97943115234375,-3.760833740234375,-4.91973876953125,-4.44122314453125,1,2.0,1.0,2.0,2.0,85.00
2023-02-18 11:51:51.879,,,,,,,,,,,,,,,,,,,,,,,,,,,,,,,,,,,,,,/muse/elements/blink
2023-02-18 11:51:52.512,,,,,,,,,,,,,,,,,,,,,,,,,,,,,,,,,,,,,,/muse/elements/blink
2023-02-18 11:51:52.607,1.2931168,1.2773827,0.8058052,0.4482663,0.9944666,1.4023079,0.23620155,0.769391,0.6359465,1.1240754,0.4191853,0.64320916,0.7144636,0.3096992,0.87681323,1.0391929,0.34080535,-0.10137212,0.44249448,0.7738467,682.5641,818.7546,880.0,831.6484,645.4945,-0.17877197265625,-0.07159423828125,0.98577880859375,2.1234130859375,-0.874786376953125,-2.6617431640625,1,2.0,1.0,1.0,2.0,85.00
2023-02-18 11:51:53.380,,,,,,,,,,,,,,,,,,,,,,,,,,,,,,,,,,,,,,/muse/elements/blink
2023-02-18 11:51:53.614,1.2931168,1.2316418,0.8058052,0.4482663,0.9944666,1.2214439,0.23620155,0.769391,0.6359465,0.8928175,0.4191853,0.64320916,0.7144636,0.30820152,0.87681323,1.0391929,0.34080535,-0.025158042,0.44249448,0.7738467,677.326,811.0989,695.4579,884.0293,713.9927,-0.1697998046875,-0.069091796875,0.98516845703125,3.611297607421875,-4.2767333984375,0.575714111328125,1,2.0,1.0,1.0,2.0,85.00
2023-02-18 11:51:54.627,1.2931168,1.1896743,0.8058052,0.4482663,0.9944666,0.7461249,0.23620155,0.769391,0.6359465,0.58378404,0.4191853,0.64320916,0.7144636,0.14866121,0.87681323,1.0391929,0.34080535,-0.33377415,0.44249448,0.7738467,747.8388,819.9634,767.1795,802.6374,626.55676,-0.17413330078125,-0.04547119140625,0.99090576171875,1.016845703125,-3.96270751953125,-1.74957275390625,1,2.0,1.0,1.0,2.0,85.00
2023-02-18 11:51:55.633,1.2931168,0.49699423,0.8058052,0.705925,0.9944666,0.23649153,0.23620155,0.071814254,0.6359465,0.3036774,0.4191853,0.76750314,0.7144636,0.15618452,0.87681323,1.01198,0.34080535,-0.28076914,0.44249448,0.9192978,856.63007,836.4835,815.5311,894.5055,903.7729,-0.18359375,-0.04095458984375,0.989990234375,2.429962158203125,-2.355194091796875,-5.510406494140625,1,1.0,1.0,1.0,1.0,85.00
2023-02-18 11:51:56.647,1.2212415,0.46081644,0.84354275,0.77100664,1.0610768,0.22833718,0.42343166,0.5634156,1.2025167,0.21809222,0.4245966,0.61372817,0.7999628,0.07853585,0.683494,1.0090255,0.5942652,-0.2346841,0.1072237,0.8147447,829.6337,842.9304,880.0,853.00366,699.0842,-0.18072509765625,-0.0572509765625,0.977294921875,0.7177734375,-4.306640625,-1.71966552734375,1,1.0,1.0,1.0,1.0,85.00
2023-02-18 11:51:56.784,,,,,,,,,,,,,,,,,,,,,,,,,,,,,,,,,,,,,,/muse/elements/blink
2023-02-18 11:51:57.661,1.2212415,1.2571387,0.9470896,0.86734957,1.0610768,0.736735,0.6396296,0.7274189,1.2025167,0.88631636,0.79778475,0.51781577,0.7999628,0.124091014,0.7041127,0.9975798,0.5942652,-0.19109881,0.045219548,0.6375766,738.1685,841.31866,852.1978,810.293,720.0366,-0.1895751953125,-0.0457763671875,0.98370361328125,1.435546875,-2.91595458984375,-1.413116455078125,1,1.0,1.0,1.0,1.0,85.00
2023-02-18 11:51:58.662,1.2212415,1.1466757,0.7585155,0.6832968,1.0610768,0.5807008,0.51917905,0.719191,1.2025167,0.75882256,0.7142138,0.68510896,0.7999628,0.03950573,0.6132834,0.9028189,0.5942652,-0.19269739,0.13911617,0.8585871,810.696,839.707,858.24176,911.02563,914.2491,-0.1793212890625,-0.026611328125,0.9932861328125,-0.5084228515625,-6.243133544921875,3.252410888671875,1,1.0,1.0,1.0,1.0,85.00
2023-02-18 11:51:59.674,1.2212415,0.78325444,0.6925349,0.69121015,1.0610768,0.54590124,0.4194721,0.7035443,1.2025167,0.499661,0.49494907,0.8541969,0.7999628,0.1341652,0.5957216,1.0414803,0.5942652,-0.30693066,0.3728425,0.8254243,879.19415,800.2198,853.8095,932.7839,743.00366,-0.19818115234375,-0.051025390625,1.0018310546875,1.7645263671875,-3.327178955078125,-0.052337646484375,1,1.0,1.0,1.0,1.0,85.00
2023-02-18 11:51:59.722,,,,,,,,,,,,,,,,,,,,,,,,,,,,,,,,,,,,,,/muse/elements/blink
2023-02-18 11:52:00.680,1.2212415,0.8619526,0.8593852,0.6248641,1.0610768,0.6468346,0.46101782,0.60724366,1.2025167,0.45712912,0.5026718,0.8074397,0.7999628,0.3227893,0.6838951,1.1203299,0.5942652,-0.14835207,0.576163,0.82739526,737.76556,820.3663,868.71796,854.21246,648.71796,-0.1812744140625,-0.06011962890625,0.98663330078125,2.1234130859375,-3.835601806640625,-1.069183349609375,1,1.0,1.0,1.0,1.0,85.00
2023-02-18 11:52:01.694,1.2212415,0.49310493,0.6805542,0.8581805,1.0610768,0.50308704,0.20155667,0.5314392,1.2025167,0.2726363,0.47003892,0.74175537,0.7999628,0.14693652,0.550477,0.9479359,0.5942652,-0.14942695,0.35020095,0.61733943,782.8938,821.1722,855.0183,898.5348,811.9048,-0.17901611328125,-0.05462646484375,0.989990234375,1.12152099609375,-3.75335693359375,-1.099090576171875,1,1.0,1.0,1.0,1.0,85.00
2023-02-18 11:52:02.699,1.2212415,0.7163723,0.73264945,0.95765984,1.0610768,0.3959479,0.19674152,0.4549288,1.2025167,0.6285286,0.77559644,1.0828646,0.7999628,0.22575286,0.54951084,0.9618169,0.5942652,-0.16090584,0.2181983,0.8301591,708.7546,831.2454,880.0,816.337,592.3077,-0.17840576171875,-0.0469970703125,0.98394775390625,1.472930908203125,-3.850555419921875,-0.127105712890625,1,1.0,1.0,1.0,1.0,85.00
2023-02-18 11:52:02.965,,,,,,,,,,,,,,,,,,,,,,,,,,,,,,,,,,,,,,/muse/elements/blink
2023-02-18 11:52:03.132,,,,,,,,,,,,,,,,,,,,,,,,,,,,,,,,,,,,,,/muse/elements/blink
2023-02-18 11:52:03.711,1.2212415,1.1334249,0.8965454,0.8035339,1.0610768,0.87632126,0.70455384,0.24845159,1.2025167,0.8911316,0.89182526,0.9606357,0.7999628,0.26778865,0.5516531,0.8782143,0.5942652,-0.13214223,0.31712598,0.9159443,751.4652,826.4103,869.5238,926.337,802.23444,-0.180419921875,-0.05413818359375,0.9901123046875,0.934600830078125,-4.50103759765625,-0.919647216796875,1,1.0,1.0,1.0,1.0,85.00
2023-02-18 11:52:04.381,,,,,,,,,,,,,,,,,,,,,,,,,,,,,,,,,,,,,,/muse/elements/blink
2023-02-18 11:52:04.715,1.2212415,1.2354355,0.8600963,0.7579462,1.0610768,1.0398123,0.79795927,0.35488927,1.2025167,0.854616,0.85716236,0.83630276,0.7999628,0.2569424,0.74470776,0.87339795,0.5942652,-0.09253578,0.42327496,0.788684,825.6044,833.2601,867.50916,840.5128,788.1319,-0.38427734375,-0.02032470703125,0.90838623046875,-3.21502685546875,14.415283203125,4.209442138671875,1,1.0,1.0,1.0,1.0,85.00
2023-02-18 11:52:05.380,,,,,,,,,,,,,,,,,,,,,,,,,,,,,,,,,,,,,,/muse/elements/blink
2023-02-18 11:52:05.728,1.2212415,1.2218963,0.5791442,0.7579462,1.0610768,0.96280116,0.2510389,0.35488927,1.2025167,0.49216676,0.49307534,0.83630276,0.7999628,0.27278534,0.7247222,0.87339795,0.5942652,0.08109355,0.34142742,0.788684,998.86444,826.8132,906.1905,814.3223,523.00366,-0.38177490234375,0.01483154296875,0.94219970703125,-3.701019287109375,-6.302947998046875,10.347900390625,1,2.0,1.0,1.0,2.0,85.00
2023-02-18 11:52:06.099,,,,,,,,,,,,,,,,,,,,,,,,,,,,,,,,,,,,,,/muse/elements/blink
2023-02-18 11:52:06.732,1.2212415,1.3260963,0.5791442,0.7579462,1.0610768,0.9467458,0.2510389,0.35488927,1.2025167,0.2923333,0.49307534,0.83630276,0.7999628,0.38345945,0.7247222,0.87339795,0.5942652,0.10649145,0.34142742,0.788684,934.3956,822.7839,874.35895,911.8315,801.4286,-0.3096923828125,0.00848388671875,0.94329833984375,-12.03765869140625,-18.22845458984375,0.052337646484375,1,2.0,1.0,1.0,2.0,85.00
2023-02-18 11:52:07.745,1.2212415,1.0388596,0.7542975,0.7579462,1.0610768,0.70815593,0.44786528,0.35488927,1.2025167,0.08625058,0.47966784,0.83630276,0.7999628,-0.014109716,0.95713174,0.87339795,0.5942652,-0.08796554,0.60885113,0.788684,869.12085,811.50183,863.8828,795.78754,758.71796,-0.223388671875,-0.13934326171875,0.94140625,5.151519775390625,0.8673095703125,-4.71038818359375,1,2.0,1.0,1.0,2.0,85.00
2023-02-18 11:52:08.249,,,,,,,,,,,,,,,,,,,,,,,,,,,,,,,,,,,,,,/muse/elements/blink
2023-02-18 11:52:08.758,1.2212415,1.1100789,0.5892418,1.1999953,1.0610768,0.7797236,0.32111576,1.2059368,1.2025167,0.5925295,0.3358007,0.93222916,0.7999628,0.19429742,0.9554585,1.0796423,0.5942652,0.07321726,0.69304043,0.90836465,855.0183,822.381,880.80585,862.674,776.04395,-0.233642578125,-0.1109619140625,0.97857666015625,3.4991455078125,-1.592559814453125,3.5589599609375,1,1.0,1.0,1.0,1.0,85.00
2023-02-18 11:52:09.349,,,,,,,,,,,,,,,,,,,,,,,,,,,,,,,,,,,,,,/muse/elements/blink
2023-02-18 11:52:09.762,1.2212415,1.258413,1.0737537,1.2365371,1.0610768,0.8999407,0.605715,1.2705977,1.2025167,0.6410427,0.8213978,0.92797595,0.7999628,0.33972505,0.85894156,1.0994254,0.5942652,-0.048254192,0.5572627,0.8829602,896.1172,844.1392,915.4579,874.35895,751.8681,-0.18621826171875,-0.098388671875,0.988037109375,-1.772003173828125,-1.218719482421875,-7.858123779296875,1,1.0,1.0,1.0,1.0,85.00
2023-02-18 11:52:10.548,,,,,,,,,,,,,,,,,,,,,,,,,,,,,,,,,,,,,,/muse/elements/blink
2023-02-18 11:52:10.763,1.2212415,0.9327881,1.0737537,0.9349728,1.0610768,0.96427196,0.605715,1.263231,1.2025167,1.1244845,0.8213978,0.8764285,0.7999628,0.400865,0.85894156,1.0174243,0.5942652,-0.014257295,0.5572627,1.0860264,838.9011,819.15753,922.71063,877.1795,726.4835,-0.19549560546875,-0.080810546875,0.983154296875,1.71966552734375,-2.5421142578125,-1.652374267578125,1,1.0,1.0,1.0,1.0,85.00
2023-02-18 11:52:11.775,1.2212415,1.1181107,1.0737537,0.9349728,1.0610768,1.2240149,0.605715,1.263231,1.2025167,1.0025578,0.8213978,0.8764285,0.7999628,0.56554013,0.85894156,1.0174243,0.5942652,0.06514358,0.5572627,1.0860264,805.05493,814.7253,848.1685,845.7509,782.8938,-0.18389892578125,-0.08807373046875,0.989013671875,1.9439697265625,-4.246826171875,-0.22430419921875,1,1.0,1.0,1.0,1.0,85.00
2023-02-18 11:52:12.782,1.2212415,0.9614636,0.8323605,1.3059561,1.0610768,0.3402373,0.32284728,0.42551512,1.2025167,0.52344954,0.50741357,0.85269755,0.7999628,0.46254978,0.9982682,1.017079,0.5942652,-0.24904406,0.64585227,0.84524566,832.4542,841.31866,893.69965,878.3883,664.0293,-0.17144775390625,-0.08880615234375,0.9886474609375,1.188812255859375,-3.342132568359375,-0.31402587890625,1,1.0,1.0,1.0,1.0,85.00
2023-02-18 11:52:13.217,,,,,,,,,,,,,,,,,,,,,,,,,,,,,,,,,,,,,,/muse/elements/blink
2023-02-18 11:52:13.797,1.2212415,1.1128192,1.1587265,1.3059561,1.0610768,0.796775,0.86368626,0.42551512,1.2025167,0.7861224,0.98974943,0.85269755,0.7999628,0.34884998,0.83416134,1.017079,0.5942652,-0.18270333,0.5312163,0.84524566,805.4579,802.23444,850.18317,861.8681,633.00366,-0.19683837890625,-0.0877685546875,0.98175048828125,0.97198486328125,-4.239349365234375,-0.351409912109375,1,1.0,1.0,1.0,1.0,85.00
2023-02-18 11:52:14.808,1.0862721,1.1455096,1.3256272,1.24687,0.6958396,0.8154036,0.94335014,1.0037656,0.94360524,0.76159185,0.9060408,1.2930827,0.7959537,0.29220486,0.56566006,0.89779735,0.6328693,-0.092572145,0.37722135,0.9538443,853.4066,831.6484,888.86444,904.17584,749.45056,-0.18255615234375,-0.09405517578125,0.98370361328125,1.562652587890625,-4.5159912109375,-0.85235595703125,1,1.0,1.0,1.0,1.0,85.00
2023-02-18 11:52:15.814,1.0985221,0.96117055,0.7111177,1.0324855,0.6201857,0.5706742,0.4041569,0.71023625,0.9206649,0.8559579,0.77572024,0.9795574,0.8437627,0.41807875,0.46556216,1.1126806,0.71086174,0.20379288,0.3242691,0.8206591,810.696,806.6667,826.8132,823.1868,666.04395,-0.16180419921875,-0.087646484375,0.99627685546875,1.12152099609375,-3.506622314453125,-1.188812255859375,1,1.0,1.0,1.0,1.0,85.00
2023-02-18 11:52:16.824,1.3505322,0.9257777,0.8721751,1.2987053,0.576205,0.5941208,0.32589114,0.81030285,0.6085623,0.9240465,0.76610154,1.0767026,0.9066862,0.538872,0.5598965,1.0658362,0.74405694,0.4006657,0.36301863,0.9055153,816.337,799.011,840.10986,842.1245,633.4066,-0.185546875,-0.09356689453125,0.9783935546875,2.691650390625,-2.086029052734375,-0.0,1,1.0,1.0,1.0,1.0,85.00
2023-02-18 11:52:17.830,1.4153318,1.0160383,1.0083773,1.1777899,0.6016665,0.76552176,0.5313671,1.1443391,0.5726458,0.93050814,0.716227,1.2820464,0.8986037,0.4263808,0.5475736,1.1110291,0.7501587,0.17391965,0.35248113,0.7127556,952.1245,806.6667,859.85345,895.31134,1018.60803,-0.1798095703125,-0.0985107421875,0.991943359375,1.9439697265625,-4.8748779296875,-0.2691650390625,1,1.0,1.0,1.0,1.0,85.00
2023-02-18 11:52:18.841,1.4153318,0.9729334,0.90082717,0.9873046,0.6016665,0.6819167,1.0359234,0.85111994,0.5726458,0.97708786,0.9548967,1.1835387,0.8986037,0.3783195,0.36088789,1.0044037,0.7501587,-0.16312218,0.14919342,0.7257549,871.13556,794.9817,845.34796,823.9927,608.022,-0.1597900390625,-0.0880126953125,0.99285888671875,0.97198486328125,-3.656158447265625,-0.800018310546875,1,1.0,1.0,1.0,1.0,80.00
2023-02-18 11:52:19.616,,,,,,,,,,,,,,,,,,,,,,,,,,,,,,,,,,,,,,/muse/elements/blink
2023-02-18 11:52:19.849,1.4153318,1.009006,1.1113759,0.89078236,0.6016665,0.52977127,0.5398834,0.7484012,0.5726458,0.7680881,0.94978666,1.1755114,0.8986037,0.27828267,0.4337708,0.9233153,0.7501587,-0.14042288,0.10964785,0.78633285,870.7326,820.3663,857.03296,879.59705,775.2381,-0.1666259765625,-0.0908203125,0.9949951171875,1.7047119140625,-3.491668701171875,-1.009368896484375,1,1.0,1.0,1.0,1.0,80.00
2023-02-18 11:52:20.864,1.4153318,1.2260084,1.1071874,0.60382134,0.6016665,0.71290165,0.5665061,0.90382415,0.5726458,0.84431624,0.8257642,1.0962524,0.8986037,0.26956713,0.33717656,0.8443541,0.7501587,-0.07812454,-0.21460566,0.87248707,807.0696,796.5934,840.5128,830.0366,795.38464,-0.15576171875,-0.08599853515625,0.982177734375,0.994415283203125,-2.863616943359375,-0.710296630859375,1,1.0,1.0,1.0,1.0,80.00
2023-02-18 11:52:21.875,1.2416095,1.1305614,0.95197934,1.049061,0.7386335,0.7612267,0.38334143,0.2758548,0.9207856,0.81635135,0.22075287,0.834337,0.72252715,0.18153006,0.342219,0.9558558,0.46964842,-0.06215968,-0.01710798,0.94066185,824.3956,782.8938,812.71063,838.9011,597.9487,-0.1514892578125,-0.08978271484375,0.9915771484375,1.33087158203125,-4.358978271484375,-0.725250244140625,1,1.0,1.0,1.0,1.0,80.00
2023-02-18 11:52:22.749,,,,,,,,,,,,,,,,,,,,,,,,,,,,,,,,,,,,,,/muse/elements/blink
2023-02-18 11:52:22.885,1.232146,1.1925678,1.0884712,1.1098801,0.7010331,0.624174,0.828995,0.59419465,0.71691793,0.590187,0.6444538,1.0377141,0.7307826,0.25484687,0.40918916,0.85707605,0.3571049,-0.17604426,0.1370773,0.886425,846.55676,801.02563,853.4066,884.43225,756.7033,-0.154541015625,-0.08709716796875,0.988037109375,1.5850830078125,-3.409423828125,-0.64300537109375,1,1.0,1.0,1.0,1.0,80.00
2023-02-18 11:52:23.896,1.5705764,0.86878765,1.1341789,1.2140738,1.2768728,0.6123548,1.162731,1.2175372,1.2266268,0.56462735,0.8507162,1.2136476,0.69915,0.21088214,0.46380246,0.84765506,0.57871234,-0.14692801,0.1132023,0.7506534,793.7729,781.685,825.2015,815.5311,761.13556,-0.15765380859375,-0.08184814453125,0.99493408203125,3.177642822265625,-3.715972900390625,0.680389404296875,1,1.0,1.0,1.0,1.0,80.00
2023-02-18 11:52:24.284,,,,,,,,,,,,,,,,,,,,,,,,,,,,,,,,,,,,,,/muse/elements/blink
2023-02-18 11:52:24.897,0.8689251,0.71662295,1.1475129,0.5658883,0.82118666,0.6581377,1.0037047,0.9374541,0.65177923,0.7167524,0.87972236,0.98322934,0.7522599,0.24336174,0.4472463,0.8450097,0.49859387,-0.23354815,0.27230647,0.8008869,745.42126,782.0879,842.9304,832.0513,686.5934,0.2353515625,-0.20904541015625,1.505615234375,-41.085052490234375,-4.044952392578125,-20.000457763671875,1,1.0,1.0,1.0,1.0,80.00
2023-02-18 11:52:25.908,0.8689251,1.2587155,1.4144498,0.59319913,0.82118666,0.7782525,1.170866,0.9953593,0.65177923,0.7545674,0.81403124,0.85229725,0.7522599,0.5615594,0.53156644,0.7260886,0.49859387,0.16232896,0.48700184,0.86983687,808.68134,764.7619,985.16486,815.9341,737.76556,-0.20367431640625,-0.1287841796875,0.96697998046875,-2.58697509765625,-4.807586669921875,7.76092529296875,1,1.0,1.0,1.0,1.0,80.00
2023-02-18 11:52:26.918,0.8689251,1.1624029,1.455551,0.59319913,0.82118666,0.5920628,1.189509,0.9953593,0.65177923,0.5594487,0.8006001,0.85229725,0.7522599,0.4560218,0.58037144,0.7260886,0.49859387,-0.04946836,0.5406389,0.86983687,811.9048,827.619,996.04395,827.619,685.38464,-0.1802978515625,-0.07757568359375,1.04180908203125,-4.732818603515625,-3.6187744140625,0.351409912109375,1,2.0,1.0,1.0,2.0,80.00
2023-02-18 11:52:27.925,0.8689251,1.0779523,1.455551,0.59319913,0.82118666,0.4345652,1.189509,0.9953593,0.65177923,0.3462986,0.8006001,0.85229725,0.7522599,0.41690314,0.58037144,0.7260886,0.49859387,-0.17314245,0.5406389,0.86983687,836.08057,759.5238,728.9011,829.6337,614.87177,-0.11865234375,-0.150390625,0.99298095703125,-3.745880126953125,-5.854339599609375,1.772003173828125,1,2.0,1.0,1.0,2.0,80.00
2023-02-18 11:52:28.928,0.8689251,1.0779523,1.455551,0.59319913,0.82118666,0.4345652,1.189509,0.9953593,0.65177923,0.3462986,0.8006001,0.85229725,0.7522599,0.41690314,0.58037144,0.7260886,0.49859387,-0.17314245,0.5406389,0.86983687,854.61536,777.25275,797.8022,869.12085,736.55676,-0.10211181640625,-0.09503173828125,0.9774169921875,3.84307861328125,-5.555267333984375,8.73291015625,1,2.0,1.0,1.0,2.0,80.00
2023-02-18 11:52:29.179,,,,,,,,,,,,,,,,,,,,,,,,,,,,,,,,,,,,,,/muse/elements/blink
2023-02-18 11:52:29.941,0.8689251,1.0779523,1.455551,0.59319913,0.82118666,0.4345652,1.189509,0.9953593,0.65177923,0.3462986,0.8006001,0.85229725,0.7522599,0.41690314,0.58037144,0.7260886,0.49859387,-0.17314245,0.5406389,0.86983687,783.69965,745.82416,770.0,832.8571,700.696,-0.03729248046875,-0.07513427734375,1.018310546875,5.75714111328125,-2.76641845703125,-4.089813232421875,1,2.0,1.0,1.0,2.0,85.00
2023-02-18 11:52:30.945,1.0302931,0.93519926,1.455551,1.3169732,0.8724973,0.19062816,1.189509,0.7071777,0.80960095,0.54983115,0.8006001,1.1391807,0.7760671,0.17525317,0.58037144,1.5731537,0.8918589,-0.23204248,0.5406389,1.035842,828.022,786.1172,735.7509,843.73627,885.64105,-0.09716796875,-0.08135986328125,0.99859619140625,2.01873779296875,-4.658050537109375,-1.03179931640625,1,1.0,1.0,1.0,1.0,85.00
2023-02-18 11:52:31.959,1.1217237,0.6174198,1.455551,1.1264849,0.89066714,0.6013189,1.189509,0.69810826,0.86900157,0.63197166,0.8006001,0.8466604,0.819134,0.21875224,0.58037144,1.2707154,0.68919957,-0.22488971,0.5406389,0.8397324,844.94507,809.89014,764.7619,887.6557,746.63007,-0.094970703125,-0.09344482421875,1.00238037109375,2.28790283203125,-3.641204833984375,0.07476806640625,1,1.0,1.0,1.0,1.0,85.00
2023-02-18 11:52:32.211,,,,,,,,,,,,,,,,,,,,,,,,,,,,,,,,,,,,,,/muse/elements/blink
2023-02-18 11:52:32.816,,,,,,,,,,,,,,,,,,,,,,,,,,,,,,,,,,,,,,/muse/elements/blink
2023-02-18 11:52:32.960,1.4961433,0.9943389,1.1553372,1.2000356,1.3762406,0.6885718,0.832978,1.1008925,1.1029513,0.8712927,0.64914757,1.5211195,0.76467407,0.2048753,0.43403876,0.89583987,0.58645546,-0.24017622,-0.0147360535,0.740136,820.3663,786.9231,754.2857,846.1539,586.6667,-0.08929443359375,-0.1280517578125,0.99700927734375,4.2169189453125,-4.59075927734375,1.876678466796875,1,1.0,1.0,1.0,1.0,85.00
2023-02-18 11:52:33.961,1.4961433,0.9509384,1.100959,1.4333613,1.3762406,0.59227973,0.8645642,1.3292364,1.1029513,0.8837817,0.6965114,1.5211195,0.76467407,0.32283404,0.3309655,0.8676616,0.58645546,-0.31563407,0.02587262,0.7964235,819.9634,780.07324,766.77655,877.5824,748.24176,-0.0924072265625,-0.1187744140625,0.99114990234375,2.295379638671875,-3.4393310546875,-1.016845703125,1,1.0,1.0,1.0,1.0,85.00
2023-02-18 11:52:34.145,,,,,,,,,,,,,,,,,,,,,,,,,,,,,,,,,,,,,,/muse/elements/blink
2023-02-18 11:52:34.664,,,,,,,,,,,,,,,,,,,,,,,,,,,,,,,,,,,,,,/muse/elements/blink
2023-02-18 11:52:34.972,1.4961433,1.1287149,0.79745907,1.4333613,1.3762406,0.8631358,0.51757365,1.3292364,1.1029513,0.5968502,0.5857261,1.5211195,0.76467407,0.32830977,0.26341912,0.8676616,0.58645546,-0.38658115,-0.011177987,0.7964235,832.0513,790.14655,778.0586,829.2308,622.1245,-0.08160400390625,-0.12188720703125,0.9990234375,2.61688232421875,-2.49725341796875,1.1663818359375,1,2.0,1.0,1.0,2.0,85.00
2023-02-18 11:52:35.365,,,,,,,,,,,,,,,,,,,,,,,,,,,,,,,,,,,,,,/muse/elements/blink
2023-02-18 11:52:35.979,1.4961433,1.341172,0.846882,1.4333613,1.3762406,1.0865637,0.59000945,1.3292364,1.1029513,0.17102355,0.53740966,1.5211195,0.76467407,0.115260616,0.2322565,0.8676616,0.58645546,-0.28326824,-0.09056982,0.7964235,799.41394,804.2491,775.2381,824.3956,527.8388,-0.07440185546875,-0.1119384765625,1.00115966796875,1.256103515625,-3.342132568359375,-1.697235107421875,1,2.0,1.0,1.0,2.0,85.00
2023-02-18 11:52:36.750,,,,,,,,,,,,,,,,,,,,,,,,,,,,,,,,,,,,,,/muse/elements/blink
2023-02-18 11:52:36.990,1.4961433,1.183615,1.1632738,1.4333613,1.3762406,0.7374119,0.8919526,1.3292364,1.1029513,0.9069408,0.678714,1.5211195,0.76467407,0.48146555,0.6726909,0.8676616,0.58645546,-0.24946201,-0.2569645,0.7964235,862.674,785.31134,769.19415,888.46155,828.4249,-0.0965576171875,-0.1024169921875,0.99932861328125,2.392578125,-3.177642822265625,-0.897216796875,1,2.0,1.0,1.0,2.0,85.00
2023-02-18 11:52:37.785,,,,,,,,,,,,,,,,,,,,,,,,,,,,,,,,,,,,,,/muse/elements/blink
2023-02-18 11:52:37.995,1.4961433,1.1701934,1.1632738,1.4333613,1.3762406,0.5913575,0.8919526,1.3292364,1.1029513,0.3522634,0.678714,1.5211195,0.76467407,0.48993456,0.6726909,0.8676616,0.58645546,-0.27143598,-0.2569645,0.7964235,802.6374,785.7143,840.9158,850.18317,761.53845,-0.279541015625,-0.03009033203125,0.96136474609375,4.50103759765625,1.65985107421875,5.75714111328125,1,2.0,1.0,1.0,2.0,85.00
2023-02-18 11:52:38.717,,,,,,,,,,,,,,,,,,,,,,,,,,,,,,,,,,,,,,/muse/elements/blink
2023-02-18 11:52:39.010,1.4961433,1.1701934,1.1632738,1.4333613,1.3762406,0.5913575,0.8919526,1.3292364,1.1029513,0.3522634,0.678714,1.5211195,0.76467407,0.48993456,0.6726909,0.8676616,0.58645546,-0.27143598,-0.2569645,0.7964235,849.3773,805.05493,799.41394,844.5421,685.38464,-0.29119873046875,-0.06689453125,0.94952392578125,4.433746337890625,-7.22259521484375,-7.155303955078125,1,2.0,1.0,1.0,2.0,85.00
2023-02-18 11:52:40.016,1.4961433,1.3064742,1.1632738,1.4333613,1.3762406,1.0416397,0.8919526,1.3292364,1.1029513,0.66666746,0.678714,1.5211195,0.76467407,0.42038494,0.6726909,0.8676616,0.58645546,0.07939054,-0.2569645,0.7964235,846.9597,786.9231,801.4286,869.12085,880.40295,-0.310791015625,-0.0975341796875,0.962646484375,4.94964599609375,1.532745361328125,-1.77947998046875,1,2.0,1.0,1.0,2.0,85.00
2023-02-18 11:52:40.317,,,,,,,,,,,,,,,,,,,,,,,,,,,,,,,,,,,,,,/muse/elements/blink
2023-02-18 11:52:41.028,1.4961433,1.4991351,1.1632738,1.4333613,1.3762406,0.9347412,0.8919526,1.3292364,1.1029513,0.5655074,0.678714,1.5211195,0.76467407,0.2242179,0.6726909,0.8676616,0.58645546,-0.12275582,-0.2569645,0.7964235,784.10254,803.0403,808.2784,810.696,643.47986,-0.01708984375,-0.067626953125,1.02972412109375,6.347808837890625,0.276641845703125,3.192596435546875,1,2.0,1.0,1.0,2.0,85.00
2023-02-18 11:52:41.547,,,,,,,,,,,,,,,,,,,,,,,,,,,,,,,,,,,,,,/muse/elements/blink
2023-02-18 11:52:42.040,1.4961433,1.547111,1.1632738,1.4333613,1.3762406,0.81466043,0.8919526,1.3292364,1.1029513,0.44356483,0.678714,1.5211195,0.76467407,0.2348936,0.6726909,0.8676616,0.58645546,-0.21807575,-0.2569645,0.7964235,800.6227,772.8205,772.4176,780.4762,647.9121,-0.169921875,-0.08477783203125,0.9832763671875,2.370147705078125,-6.960906982421875,-5.3533935546875,1,2.0,1.0,1.0,2.0,85.00
2023-02-18 11:52:42.384,,,,,,,,,,,,,,,,,,,,,,,,,,,,,,,,,,,,,,/muse/elements/blink
2023-02-18 11:52:43.048,1.4961433,1.344451,1.1632738,1.4333613,1.3762406,1.0028151,0.8919526,1.3292364,1.1029513,0.93407613,0.678714,1.5211195,0.76467407,0.33258918,0.6726909,0.8676616,0.58645546,0.018670468,-0.2569645,0.7964235,844.5421,795.38464,794.17584,846.9597,840.10986,-0.16607666015625,-0.05340576171875,0.99908447265625,6.08612060546875,-4.91973876953125,-13.376007080078125,1,2.0,1.0,1.0,2.0,85.00
2023-02-18 11:52:43.617,,,,,,,,,,,,,,,,,,,,,,,,,,,,,,,,,,,,,,/muse/elements/blink
2023-02-18 11:52:44.062,1.4961433,1.12836,1.1632738,1.4333613,1.3762406,0.9543871,0.8919526,1.3292364,1.1029513,0.787121,0.678714,1.5211195,0.76467407,0.24654911,0.6726909,0.8676616,0.58645546,-0.06157541,-0.2569645,0.7964235,830.0366,805.4579,821.5751,805.8608,655.56775,-0.2125244140625,-0.0224609375,0.9620361328125,-2.983245849609375,-2.64678955078125,7.77587890625,1,2.0,1.0,1.0,2.0,85.00
2023-02-18 11:52:44.582,,,,,,,,,,,,,,,,,,,,,,,,,,,,,,,,,,,,,,/muse/elements/blink
2023-02-18 11:52:45.063,1.4961433,1.0889459,1.1632738,1.4333613,1.3762406,0.74646753,0.8919526,1.3292364,1.1029513,0.53946334,0.678714,1.5211195,0.76467407,0.15138179,0.6726909,0.8676616,0.58645546,-0.15247193,-0.2569645,0.7964235,757.50916,837.28937,849.3773,770.80585,780.07324,-0.20513916015625,-0.02685546875,0.9871826171875,-0.082244873046875,-4.194488525390625,0.2691650390625,1,2.0,1.0,1.0,2.0,85.00
2023-02-18 11:52:45.284,,,,,,,,,,,,,,,,,,,,,,,,,,,,,,,,,,,,,,/muse/elements/blink
2023-02-18 11:52:46.064,1.4961433,1.0889459,1.1632738,1.4333613,1.3762406,0.74646753,0.8919526,1.3292364,1.1029513,0.53946334,0.678714,1.5211195,0.76467407,0.15138179,0.6726909,0.8676616,0.58645546,-0.15247193,-0.2569645,0.7964235,872.3443,814.3223,795.78754,882.4176,830.84247,-0.203369140625,-0.01422119140625,0.97894287109375,2.6617431640625,-5.016937255859375,2.093505859375,1,2.0,1.0,1.0,2.0,85.00
2023-02-18 11:52:46.149,,,,,,,,,,,,,,,,,,,,,,,,,,,,,,,,,,,,,,/muse/elements/blink
2023-02-18 11:52:46.749,,,,,,,,,,,,,,,,,,,,,,,,,,,,,,,,,,,,,,/muse/elements/blink
2023-02-18 11:52:47.076,1.4961433,1.3793938,1.1632738,1.5356964,1.3762406,1.3589461,0.8919526,1.3430415,1.1029513,0.7501594,0.678714,1.4097713,0.76467407,0.3100517,0.6726909,1.259336,0.58645546,-0.09470952,-0.2569645,0.89959675,779.2674,775.2381,800.6227,803.44324,703.91943,-0.12615966796875,-0.10931396484375,0.99664306640625,1.9140625,-0.01495361328125,3.117828369140625,1,1.0,1.0,1.0,1.0,85.00
2023-02-18 11:52:48.082,1.4961433,0.85360885,1.1632738,1.4910133,1.3762406,0.9281005,0.8919526,1.2862309,1.1029513,0.7372845,0.678714,1.2812419,0.76467407,0.2927822,0.6726909,1.2430882,0.58645546,-0.2378553,-0.2569645,0.89644605,832.8571,797.8022,781.685,836.08057,529.0476,-0.1470947265625,-0.09588623046875,1.00140380859375,4.269256591796875,-5.2935791015625,-4.433746337890625,1,1.0,1.0,1.0,1.0,85.00
2023-02-18 11:52:48.751,,,,,,,,,,,,,,,,,,,,,,,,,,,,,,,,,,,,,,/muse/elements/blink
2023-02-18 11:52:49.093,0.8678086,1.100774,1.1632738,0.28482765,0.7508903,0.89333385,0.8919526,0.7136718,0.6285601,1.0533278,0.678714,1.2063562,0.764416,0.24785216,0.6726909,1.056169,0.55150265,-0.31120938,-0.2569645,1.0524706,823.9927,787.72894,778.0586,848.97437,753.47986,-0.13287353515625,-0.08245849609375,0.9930419921875,1.712188720703125,-3.90289306640625,0.246734619140625,1,1.0,1.0,1.0,1.0,85.00
2023-02-18 11:52:50.097,0.8243928,1.206198,1.1632738,0.2918119,0.7290931,0.8015534,0.8919526,0.6990934,0.6030499,1.1082658,0.678714,1.2029103,0.8176836,0.12614712,0.6726909,1.0818797,0.55824244,-0.31098205,-0.2569645,0.98477477,698.2784,781.685,749.45056,852.6007,708.3516,-0.13470458984375,-0.082763671875,0.994873046875,2.1533203125,-3.4991455078125,-0.306549072265625,1,1.0,1.0,1.0,1.0,85.00
2023-02-18 11:52:50.182,,,,,,,,,,,,,,,,,,,,,,,,,,,,,,,,,,,,,,/muse/elements/blink
2023-02-18 11:52:51.108,0.8243928,1.0194192,1.1632738,0.2918119,0.7290931,0.4939117,0.8919526,0.6990934,0.6030499,0.7759661,0.678714,1.2029103,0.8176836,0.1834336,0.6726909,1.0818797,0.55824244,-0.27889997,-0.2569645,0.98477477,672.0879,799.011,767.1795,819.5604,535.09155,-0.1334228515625,-0.0865478515625,0.99932861328125,1.846771240234375,-4.5159912109375,-0.1495361328125,1,1.0,1.0,1.0,1.0,85.00
2023-02-18 11:52:52.116,0.8243928,0.9828344,0.9053544,0.98135656,0.7290931,0.758742,0.664655,0.9317295,0.6030499,0.65285975,0.6821804,0.8745715,0.8176836,0.268208,0.3794664,1.0065207,0.55824244,-0.24128504,0.24301282,0.8037693,729.707,796.99634,778.46155,823.9927,767.5824,-0.1312255859375,-0.09063720703125,0.99505615234375,1.62994384765625,-3.656158447265625,-0.665435791015625,1,1.0,1.0,1.0,1.0,85.00
2023-02-18 11:52:52.914,,,,,,,,,,,,,,,,,,,,,,,,,,,,,,,,,,,,,,/muse/elements/blink
2023-02-18 11:52:53.128,0.8243928,0.80069625,1.0101498,1.1755376,0.7290931,0.80213374,0.57309055,0.9708945,0.6030499,0.66262496,0.691228,1.2069466,0.8176836,0.29509136,0.5270779,0.9837076,0.55824244,-0.27270833,0.22297141,0.7668151,738.5714,788.5348,774.83514,815.5311,611.6484,-0.12982177734375,-0.0899658203125,0.98883056640625,1.39068603515625,-3.745880126953125,-0.770111083984375,1,1.0,1.0,1.0,1.0,85.00
2023-02-18 11:52:54.129,0.8243928,0.84983873,1.2012397,1.2500241,0.7290931,0.7962787,0.3941198,1.0929585,0.6030499,0.44235605,0.4613129,1.1883997,0.8176836,0.30843046,0.62618273,0.9436334,0.55824244,-0.14317119,0.19624527,0.86907494,776.8498,781.685,794.9817,832.0513,622.1245,-0.13348388671875,-0.0908203125,0.98138427734375,1.009368896484375,-2.5421142578125,-2.58697509765625,1,1.0,1.0,1.0,1.0,85.00
2023-02-18 11:52:55.141,0.8243928,0.52434343,0.73073894,0.79893047,0.7290931,0.45687225,0.73442096,0.73307896,0.6030499,0.4821035,0.48317438,0.8591562,0.8176836,0.19528458,0.4344612,0.87601286,0.55824244,-0.21476518,-0.17136247,0.91187274,756.7033,775.2381,784.5055,828.8278,777.6557,-0.134521484375,-0.10028076171875,0.99249267578125,1.323394775390625,-3.529052734375,-0.76263427734375,1,1.0,1.0,1.0,1.0,85.00
2023-02-18 11:52:55.563,,,,,,,,,,,,,,,,,,,,,,,,,,,,,,,,,,,,,,/muse/elements/blink
2023-02-18 11:52:56.146,0.8243928,0.7038579,0.99970835,0.7429048,0.7290931,0.71077555,0.90730965,0.5752688,0.6030499,0.6864913,0.7154058,0.71930045,0.8176836,0.3211183,0.33378962,0.91033614,0.55824244,-0.31155846,0.005112499,0.65298116,711.1722,796.99634,779.67035,786.1172,658.7912,-0.12872314453125,-0.09478759765625,0.9896240234375,1.375732421875,-3.170166015625,-1.016845703125,1,1.0,1.0,1.0,1.0,85.00
2023-02-18 11:52:57.148,0.8243928,0.9459657,0.9131781,0.23619491,0.7290931,0.6861515,0.671921,0.8697581,0.6030499,0.6045413,0.7074911,0.8954316,0.8176836,0.38245955,0.4659751,1.06481,0.55824244,-0.41054374,0.0033694615,1.0801973,873.95605,785.31134,771.6117,848.1685,749.85345,-0.12994384765625,-0.0980224609375,0.99444580078125,2.16827392578125,-3.46923828125,2.61688232421875,1,1.0,1.0,1.0,1.0,85.00
2023-02-18 11:52:57.482,,,,,,,,,,,,,,,,,,,,,,,,,,,,,,,,,,,,,,/muse/elements/blink
2023-02-18 11:52:58.159,1.960335,1.030659,0.80320585,0.94163656,1.4946843,0.53202707,0.6758021,1.2367184,1.3287095,0.69141185,0.81583744,1.0549527,0.9997893,0.2868636,0.40346387,1.0209404,0.74442166,-0.2558597,-0.034482505,0.9375999,867.9121,776.8498,789.34064,817.5458,960.18317,-0.1180419921875,-0.10894775390625,0.98516845703125,2.145843505859375,-4.56085205078125,-0.650482177734375,1,1.0,1.0,1.0,1.0,85.00
2023-02-18 11:52:59.163,1.960335,0.8200614,1.1969142,1.0382807,1.4946843,0.8334511,0.82379645,1.297553,1.3287095,0.73687893,0.6835453,1.1706643,0.9997893,0.15295787,0.36199117,0.9555561,0.74442166,-0.16271201,-0.020811196,0.89387035,921.50183,801.02563,772.8205,805.4579,535.09155,-0.108642578125,-0.1038818359375,0.99456787109375,1.248626708984375,-4.433746337890625,-0.934600830078125,1,1.0,1.0,1.0,1.0,85.00
2023-02-18 11:53:00.048,,,,,,,,,,,,,,,,,,,,,,,,,,,,,,,,,,,,,,/muse/elements/blink
2023-02-18 11:53:00.174,1.960335,1.1889075,0.9162133,0.89566195,1.4946843,0.85676044,0.8532715,1.0258918,1.3287095,0.7516599,0.76523167,1.2370752,0.9997893,0.16163658,0.36161065,0.9597858,0.74442166,-0.22579286,-0.13781452,0.8962965,913.44324,802.6374,771.6117,863.47986,698.2784,-0.1297607421875,-0.09332275390625,0.99810791015625,1.368255615234375,-4.119720458984375,1.1663818359375,1,1.0,1.0,1.0,1.0,85.00
2023-02-18 11:53:01.180,1.960335,1.0627434,0.93069994,1.1364505,1.4946843,0.7376577,0.813624,1.1243023,1.3287095,0.66977626,0.6512625,1.1504165,0.9997893,0.29331952,0.5565783,0.94711405,0.74442166,0.04363501,-0.16888231,0.9082667,821.5751,807.47253,792.1612,796.5934,645.09155,-0.127197265625,-0.10186767578125,0.9910888671875,1.4056396484375,-5.09918212890625,-0.157012939453125,1,1.0,1.0,1.0,1.0,85.00
2023-02-18 11:53:02.191,1.960335,0.92179537,0.82168895,1.1959127,1.4946843,0.5480779,0.48309875,0.662958,1.3287095,0.5236749,0.87831396,0.67262197,0.9997893,0.28731245,0.5264261,1.4621012,0.74442166,-0.10567538,-0.13733664,0.9672405,737.76556,784.5055,796.5934,792.1612,650.7326,-0.11688232421875,-0.1533203125,0.99151611328125,0.59814453125,-6.527252197265625,8.35906982421875,1,1.0,1.0,1.0,1.0,85.00
2023-02-18 11:53:02.683,,,,,,,,,,,,,,,,,,,,,,,,,,,,,,,,,,,,,,/muse/elements/blink
2023-02-18 11:53:03.196,1.960335,1.2308947,0.6693814,1.2254268,1.4946843,0.82045364,0.8127472,0.8226526,1.3287095,0.55884,0.97428775,0.75757873,0.9997893,0.20522796,0.49003306,1.6168821,0.74442166,-0.0060936026,-0.06855127,0.9354774,759.5238,785.31134,753.0769,818.7546,806.6667,-0.13494873046875,-0.10211181640625,0.99957275390625,1.712188720703125,-2.714080810546875,0.710296630859375,1,1.0,1.0,1.0,1.0,85.00
2023-02-18 11:53:04.197,1.960335,1.5108941,0.8220944,1.4182091,1.4946843,0.8519074,0.97226936,1.0883023,1.3287095,0.5549052,0.9361626,1.0816404,0.9997893,0.25563124,0.5744563,1.2267147,0.74442166,0.1588602,0.0158038,0.7862717,925.5311,806.6667,765.16486,839.707,807.8755,-0.148681640625,-0.07904052734375,0.9803466796875,4.284210205078125,-8.276824951171875,0.171966552734375,1,1.0,1.0,1.0,1.0,85.00
2023-02-18 11:53:05.208,1.960335,0.9257179,0.8220944,1.485746,1.4946843,0.12072084,0.97226936,1.0093373,1.3287095,0.3197329,0.9361626,1.1048187,0.9997893,0.39194068,0.5744563,1.2363516,0.74442166,-0.06329321,0.0158038,0.80515116,842.1245,797.3993,691.4286,815.5311,841.31866,-0.14935302734375,-0.09478759765625,0.98822021484375,1.18133544921875,-2.7215576171875,-1.256103515625,1,1.0,1.0,1.0,1.0,85.00
2023-02-18 11:53:05.915,,,,,,,,,,,,,,,,,,,,,,,,,,,,,,,,,,,,,,/muse/elements/blink
2023-02-18 11:53:06.213,1.3717282,0.9949322,0.8220944,1.2501544,1.0032797,0.16355406,0.97226936,1.1037269,0.948669,0.5989119,0.9361626,1.0608673,1.1112676,0.34676722,0.5744563,1.2680594,0.8506629,-0.032165855,0.0158038,1.1887918,891.685,782.8938,671.685,850.989,732.9304,-0.13580322265625,-0.11468505859375,0.99188232421875,-0.418701171875,-3.8580322265625,-1.532745361328125,1,1.0,1.0,1.0,1.0,85.00
2023-02-18 11:53:06.348,,,,,,,,,,,,,,,,,,,,,,,,,,,,,,,,,,,,,,/muse/elements/blink
2023-02-18 11:53:07.227,1.3198074,1.4724646,0.8220944,1.2501544,0.99230886,1.1002553,0.97226936,1.1037269,0.87540907,0.69055676,0.9361626,1.0608673,1.1129171,0.38368016,0.5744563,1.2680594,0.8116611,0.0530888,0.0158038,1.1887918,862.27106,811.50183,759.12085,823.9927,593.5165,-0.1502685546875,-0.1025390625,0.99090576171875,0.478515625,-5.3533935546875,0.70281982421875,1,1.0,1.0,1.0,1.0,85.00
2023-02-18 11:53:08.231,1.3553723,1.1480196,1.1014016,1.2501544,1.1540855,0.82329524,0.7288516,1.1037269,1.0251243,0.6285433,0.66824055,1.0608673,0.9519043,0.27261576,0.71184313,1.2680594,0.60895,-0.090439476,0.26975873,1.1887918,816.337,798.60803,755.89746,828.4249,625.34796,-0.1578369140625,-0.1103515625,0.97918701171875,2.011260986328125,-7.6263427734375,-1.727142333984375,1,1.0,1.0,1.0,1.0,85.00
2023-02-18 11:53:09.244,1.4674294,0.96021396,1.2503695,1.2501544,1.1850977,0.6092434,0.7725136,1.1037269,1.0354233,0.6087331,1.098067,1.0608673,0.88102704,0.42793906,0.60722834,1.2680594,0.5828641,-0.13267303,0.22563638,1.1887918,862.27106,790.9524,760.7326,826.8132,886.8498,-0.10986328125,-0.15667724609375,1.009521484375,-0.979461669921875,0.13458251953125,-3.21502685546875,1,1.0,1.0,1.0,1.0,85.00
2023-02-18 11:53:10.245,1.0593874,0.66023374,1.3048341,1.0654836,1.1800873,0.6870448,0.9708499,0.966638,1.1072738,0.70472145,0.91516864,1.060541,0.76837546,0.41735646,0.44167846,1.1875567,0.5801567,-0.10396339,0.17511524,1.0938971,836.8865,784.5055,765.56775,815.12823,791.3553,-0.18609619140625,-0.11370849609375,0.97174072265625,1.054229736328125,-5.256195068359375,3.75335693359375,1,1.0,1.0,1.0,1.0,85.00
2023-02-18 11:53:11.260,0.8647842,0.7950593,1.1474762,0.9416023,0.93473274,0.6617998,0.534861,0.89614254,0.97338384,0.6949201,1.1087517,1.1099877,0.70057505,0.2682913,0.37134624,1.136263,0.67114264,-0.09709831,-0.111692145,1.0911518,824.7985,805.05493,770.0,817.1429,640.2564,-0.17510986328125,-0.09002685546875,0.98492431640625,0.919647216796875,-4.68048095703125,-0.179443359375,1,1.0,1.0,1.0,1.0,80.00
2023-02-18 11:53:12.274,1.2065234,1.0069937,1.0658249,1.3576612,0.7603318,0.56148255,0.5393871,1.0452983,0.65240043,0.48355037,1.0955377,1.1541628,0.8174147,0.48978448,0.39357772,1.1764406,0.7412621,-0.12466765,-0.15206008,1.0108532,815.9341,789.34064,783.69965,838.0952,734.94507,-0.17132568359375,-0.09344482421875,0.99029541015625,1.368255615234375,-4.912261962890625,-0.201873779296875,1,1.0,1.0,1.0,1.0,80.00
2023-02-18 11:53:13.134,,,,,,,,,,,,,,,,,,,,,,,,,,,,,,,,,,,,,,/muse/elements/blink
2023-02-18 11:53:13.278,1.2065234,0.71181077,0.97358114,1.1942521,0.7603318,0.4942409,0.6526441,0.8279316,0.65240043,0.54470235,0.8248254,1.1265408,0.8174147,0.2807795,0.64095014,1.0251199,0.7412621,-0.41905043,0.030501947,0.9592728,796.1905,802.23444,745.0183,811.50183,574.57874,-0.1727294921875,-0.0926513671875,0.9869384765625,0.186920166015625,-4.17205810546875,-1.936492919921875,1,1.0,1.0,1.0,1.0,80.00
2023-02-18 11:53:14.264,,,,,,,,,,,,,,,,,,,,,,,,,,,,,,,,,,,,,,/muse/elements/blink
2023-02-18 11:53:14.279,1.4663094,1.0406703,0.9976591,0.6646762,1.4223558,0.55950516,0.62157696,0.6460077,0.93259335,0.668745,0.5341893,1.0855479,0.8984736,0.32576144,0.74329054,0.8678604,0.43980196,-0.4126651,0.06938324,0.9512827,818.3516,802.23444,770.0,805.8608,655.9707,-0.16888427734375,-0.0806884765625,0.99591064453125,1.48040771484375,-5.480499267578125,-1.4056396484375,1,1.0,1.0,1.0,1.0,80.00
2023-02-18 11:53:15.280,1.4282026,1.0604042,0.96997243,1.0093431,1.4354053,0.7304264,0.6060476,1.0504627,1.1090249,0.56217974,0.4662006,1.3330413,0.6873437,0.2193273,0.77480155,1.1403147,0.47713882,-0.2823328,0.05070894,0.94745773,869.5238,811.9048,787.72894,823.5897,889.2674,-0.27252197265625,-0.08441162109375,0.97796630859375,6.92352294921875,-2.743988037109375,-10.99090576171875,1,1.0,1.0,1.0,1.0,80.00
2023-02-18 11:53:15.382,,,,,,,,,,,,,,,,,,,,,,,,,,,,,,,,,,,,,,/muse/elements/jaw_clench
2023-02-18 11:53:16.283,1.400391,1.0273415,0.96997243,0.58649755,1.057643,0.573738,0.6060476,0.8848174,0.73854125,0.50688213,0.4662006,1.1777757,0.68772435,0.17176199,0.77480155,1.2634884,0.44296852,-0.037817314,0.05070894,1.1436577,810.293,796.1905,805.4579,805.8608,711.5751,-0.14569091796875,-0.1142578125,0.9881591796875,-6.138458251953125,-7.514190673828125,3.207550048828125,1,1.0,1.0,1.0,1.0,80.00
2023-02-18 11:53:16.777,,,,,,,,,,,,,,,,,,,,,,,,,,,,,,,,,,,,,,/muse/elements/blink
2023-02-18 11:53:17.297,1.5039979,1.0232774,0.96997243,0.7313043,1.1958814,0.7277387,0.6060476,1.0372908,0.7419662,0.47797617,0.4662006,1.1054733,0.6848426,0.10701779,0.77480155,1.3649495,0.40057012,-0.11421535,0.05070894,1.1731968,782.49084,774.0293,780.87915,792.5641,697.47253,-0.14666748046875,0.009033203125,1.02703857421875,-6.392669677734375,-0.5682373046875,14.2059326171875,1,1.0,1.0,1.0,1.0,80.00
2023-02-18 11:53:18.307,1.4439328,0.6903765,0.96997243,1.1383132,1.3569359,0.5872522,0.6060476,1.2495574,1.1793561,0.7010543,0.4662006,1.8764335,0.6606799,0.21489261,0.77480155,1.4490457,0.39275554,-0.19536439,0.05070894,1.0251052,804.2491,828.022,800.2198,828.4249,851.79486,-0.1907958984375,-0.0770263671875,1.0245361328125,1.6748046875,-4.882354736328125,-2.758941650390625,1,1.0,1.0,1.0,1.0,80.00
2023-02-18 11:53:19.314,1.4439328,1.0532268,0.96997243,1.3686805,1.3569359,0.80690986,0.6060476,0.9814669,1.1793561,0.8607888,0.4662006,1.7284776,0.6606799,0.33464375,0.77480155,1.4301782,0.39275554,-0.29192463,0.05070894,1.1154668,830.0366,795.38464,756.30035,817.9487,697.0696,-0.18359375,-0.0374755859375,0.97784423828125,0.515899658203125,-3.1103515625,12.93487548828125,1,1.0,1.0,1.0,1.0,80.00
2023-02-18 11:53:19.632,,,,,,,,,,,,,,,,,,,,,,,,,,,,,,,,,,,,,,/muse/elements/blink
2023-02-18 11:53:20.323,1.4439328,1.1781968,0.96997243,1.5577893,1.3569359,1.2778392,0.6060476,0.9768824,1.1793561,0.85516775,0.4662006,0.9410523,0.6606799,0.26208776,0.77480155,1.256756,0.39275554,-0.21376793,0.05070894,1.1179745,770.40295,788.93774,758.315,792.5641,695.4579,-0.2486572265625,-0.04266357421875,0.97930908203125,0.829925537109375,10.42266845703125,-2.250518798828125,1,1.0,1.0,1.0,1.0,80.00
2023-02-18 11:53:21.330,1.4439328,0.8553647,1.3021834,1.0026163,1.3569359,0.817097,1.095456,1.0869168,1.1793561,0.63258404,1.2352631,1.171877,0.6606799,0.24763513,0.83043,1.0478313,0.39275554,-0.38856113,0.58968556,0.70160425,858.6447,812.71063,759.5238,819.15753,765.9707,-0.2103271484375,-0.06353759765625,0.979248046875,2.55706787109375,-4.613189697265625,-2.03369140625,1,1.0,1.0,1.0,1.0,85.00
2023-02-18 11:53:22.333,1.4439328,0.82434464,1.2920116,1.1324201,1.3569359,0.59651226,1.0750108,1.1429482,1.1793561,0.63337004,1.2339638,1.3903183,0.6606799,0.3178516,0.66800183,1.1822106,0.39275554,-0.18619516,0.26764378,0.94159913,850.58606,801.02563,780.87915,780.4762,649.12085,-0.46380615234375,-0.163818359375,0.916748046875,-8.14971923828125,3.192596435546875,-21.593017578125,1,1.0,1.0,1.0,1.0,85.00
2023-02-18 11:53:23.341,1.4439328,0.9322961,0.93169904,1.1519188,1.3569359,0.47428042,0.96750784,1.0439868,1.1793561,0.65967995,0.91536725,1.5695891,0.6606799,0.28796533,0.56558007,1.6796571,0.39275554,-0.085817136,-0.0111647025,1.2681049,818.3516,811.50183,785.31134,784.5055,617.6923,-0.12286376953125,-0.0809326171875,1.01202392578125,7.035675048828125,-5.465545654296875,-5.54779052734375,1,1.0,1.0,1.0,1.0,85.00
2023-02-18 11:53:24.348,1.4439328,0.7781583,0.93169904,0.9546339,1.3569359,0.2693302,0.96750784,0.8990233,1.1793561,0.6754637,0.91536725,1.3857099,0.6606799,0.377807,0.56558007,1.508846,0.39275554,-0.06698344,-0.0111647025,1.2429924,856.2271,804.2491,812.3077,823.9927,875.9707,-0.1878662109375,-0.08087158203125,0.985107421875,1.128997802734375,-5.151519775390625,0.426177978515625,1,1.0,1.0,1.0,1.0,85.00
2023-02-18 11:53:24.799,,,,,,,,,,,,,,,,,,,,,,,,,,,,,,,,,,,,,,/muse/elements/blink
2023-02-18 11:53:25.318,,,,,,,,,,,,,,,,,,,,,,,,,,,,,,,,,,,,,,/muse/elements/blink
2023-02-18 11:53:25.349,1.4347852,0.90328854,0.93169904,1.2985239,1.2731292,0.3623674,0.96750784,1.4774157,1.270043,0.57694036,0.91536725,1.3302832,0.8446035,0.17316186,0.56558007,1.1638722,0.74301916,-0.09937925,-0.0111647025,0.9058672,724.0659,818.7546,843.73627,710.7692,645.4945,-0.154052734375,-0.095458984375,1.00390625,-7.618865966796875,-1.368255615234375,2.2430419921875,1,1.0,1.0,1.0,1.0,85.00
2023-02-18 11:53:25.484,,,,,,,,,,,,,,,,,,,,,,,,,,,,,,,,,,,,,,/muse/elements/blink
2023-02-18 11:53:26.357,1.4385837,1.2643715,0.93169904,1.2985239,1.4209626,0.6362831,0.96750784,1.4774157,1.1936293,0.6749366,0.91536725,1.3302832,0.8010759,0.1589365,0.56558007,1.1638722,0.7156298,-0.2068186,-0.0111647025,0.9058672,785.7143,794.9817,800.6227,771.6117,608.022,-0.164794921875,-0.09820556640625,0.98284912109375,2.579498291015625,-5.57769775390625,0.97198486328125,1,1.0,1.0,1.0,1.0,85.00
2023-02-18 11:53:27.332,,,,,,,,,,,,,,,,,,,,,,,,,,,,,,,,,,,,,,/muse/elements/blink
2023-02-18 11:53:27.367,1.4385837,1.1016787,0.93169904,1.2985239,1.4209626,0.47763208,0.96750784,1.4774157,1.1936293,0.572595,0.91536725,1.3302832,0.8010759,0.46818274,0.56558007,1.1638722,0.7156298,-0.17323722,-0.0111647025,0.9058672,850.989,800.6227,780.87915,832.0513,754.68866,-0.1685791015625,-0.08013916015625,0.9837646484375,5.63751220703125,-4.6954345703125,-1.375732421875,1,1.0,1.0,1.0,1.0,85.00
2023-02-18 11:53:28.374,1.4385837,1.2859212,0.93169904,1.2985239,1.4209626,0.53119105,0.96750784,1.4774157,1.1936293,0.9706397,0.91536725,1.3302832,0.8010759,0.3631384,0.56558007,1.1638722,0.7156298,-0.19230969,-0.0111647025,0.9058672,791.75824,780.4762,781.28204,799.41394,646.7033,-0.1473388671875,-0.0711669921875,0.9979248046875,2.811279296875,-3.177642822265625,0.9869384765625,1,2.0,1.0,1.0,2.0,85.00
2023-02-18 11:53:29.383,1.2935822,1.230481,0.90952945,1.0511063,0.9646773,0.6801726,0.99893785,0.9012545,1.0062137,1.0631986,0.60069263,1.1317474,0.67618954,0.325283,0.5135025,1.0427896,0.34682995,-0.2101518,-0.12148735,0.84925073,869.92676,799.011,765.9707,832.8571,708.3516,-0.1448974609375,-0.05865478515625,1.00390625,0.157012939453125,-2.94586181640625,-2.94586181640625,1,1.0,1.0,1.0,1.0,85.00
2023-02-18 11:53:29.482,,,,,,,,,,,,,,,,,,,,,,,,,,,,,,,,,,,,,,/muse/elements/blink
2023-02-18 11:53:30.116,,,,,,,,,,,,,,,,,,,,,,,,,,,,,,,,,,,,,,/muse/elements/blink
2023-02-18 11:53:30.390,1.3583409,1.0530555,1.2273299,1.0802242,1.1862881,1.0284228,1.1693349,0.9330398,0.8615485,0.82197744,0.7499592,1.0898925,0.6810891,0.35571614,0.50200087,0.8547481,0.27520514,-0.21624163,-0.013490007,0.8475125,856.63007,793.36993,779.67035,835.6777,912.6374,-0.1531982421875,-0.06756591796875,0.99530029296875,1.57012939453125,-4.90478515625,-1.069183349609375,1,1.0,1.0,1.0,1.0,85.00
2023-02-18 11:53:31.116,,,,,,,,,,,,,,,,,,,,,,,,,,,,,,,,,,,,,,/muse/elements/blink
2023-02-18 11:53:31.400,1.4053497,1.1513463,1.3627464,1.1483318,1.358172,0.9360039,1.2584472,1.1314166,0.8578551,0.91426885,0.71988094,0.91456944,0.81235254,0.31374145,0.49227974,0.80102813,0.2384212,-0.18203399,0.029308293,0.94423854,840.5128,810.293,770.80585,797.3993,699.4872,-0.13372802734375,-0.071533203125,1.0025634765625,1.996307373046875,-4.239349365234375,-0.22430419921875,1,1.0,1.0,1.0,1.0,80.00
2023-02-18 11:53:32.407,1.4053497,1.3345968,1.3627464,1.1483318,1.358172,0.9139943,1.2584472,1.1314166,0.8578551,0.88816977,0.71988094,0.91456944,0.81235254,0.37801078,0.49227974,0.80102813,0.2384212,-0.28537244,0.029308293,0.94423854,815.9341,794.17584,756.30035,799.011,631.79486,-0.15234375,-0.06695556640625,0.99505615234375,0.88226318359375,-3.596343994140625,0.777587890625,1,1.0,1.0,1.0,1.0,80.00
2023-02-18 11:53:32.717,,,,,,,,,,,,,,,,,,,,,,,,,,,,,,,,,,,,,,/muse/elements/blink
2023-02-18 11:53:33.415,1.3209068,1.1657534,1.2437116,1.0701668,0.9568662,0.9749706,0.77149683,0.9672793,1.1322803,0.7025926,0.8552531,1.2097602,0.5343637,0.38528785,0.78568417,1.0501761,0.17738535,-0.20967637,0.027706193,0.83687025,820.7692,790.9524,761.13556,841.7216,820.3663,-0.15191650390625,-0.06341552734375,0.99090576171875,1.039276123046875,-4.29168701171875,-0.31402587890625,1,1.0,1.0,1.0,1.0,80.00
2023-02-18 11:53:34.416,1.2459465,1.1962588,1.1943936,0.9159856,0.46820664,0.71270317,0.80317426,0.6303572,0.56093574,0.86764246,0.8326778,1.0568514,0.46417734,0.23979205,0.8378967,0.8925531,0.064501934,-0.3336922,0.011665895,0.7306624,800.2198,796.1905,752.27106,785.7143,776.04395,-0.1593017578125,-0.0732421875,0.99066162109375,0.91217041015625,-3.46923828125,-2.265472412109375,1,1.0,1.0,1.0,1.0,80.00
2023-02-18 11:53:34.566,,,,,,,,,,,,,,,,,,,,,,,,,,,,,,,,,,,,,,/muse/elements/blink
2023-02-18 11:53:35.424,1.2459465,1.3850976,1.1943936,0.9454573,0.46820664,0.88935107,0.80317426,0.58427286,0.56093574,0.90070134,0.8326778,1.0397766,0.46417734,0.47178045,0.8378967,0.8221294,0.064501934,-0.24896364,0.011665895,0.7516578,818.3516,809.89014,767.5824,849.7802,948.49817,-0.16583251953125,-0.06353759765625,0.9793701171875,2.452392578125,-3.087921142578125,1.173858642578125,1,1.0,1.0,1.0,1.0,80.00
2023-02-18 11:53:35.514,,,,,,,,,,,,,,,,,,,,,,,,,,,,,,,,,,,,,,/muse/elements/blink
2023-02-18 11:53:36.298,,,,,,,,,,,,,,,,,,,,,,,,,,,,,,,,,,,,,,/muse/elements/blink
2023-02-18 11:53:36.431,1.2459465,0.8052055,1.1943936,0.9454573,0.46820664,0.7260607,0.80317426,0.58427286,0.56093574,0.82730335,0.8326778,1.0397766,0.46417734,0.4377732,0.8378967,0.8221294,0.064501934,-0.015203054,0.011665895,0.7516578,837.6923,746.2271,736.55676,817.1429,551.6117,-0.129150390625,-0.07958984375,0.99462890625,-2.400054931640625,-3.701019287109375,-2.938385009765625,1,1.0,1.0,1.0,1.0,80.00
2023-02-18 11:53:37.440,1.2459465,0.83811504,1.1943936,0.9454573,0.46820664,0.56367916,0.80317426,0.58427286,0.56093574,0.6634791,0.8326778,1.0397766,0.46417734,0.21279281,0.8378967,0.8221294,0.064501934,-0.15549596,0.011665895,0.7516578,814.7253,783.2967,744.21246,763.5531,784.10254,-0.2193603515625,-0.08050537109375,0.98016357421875,-0.994415283203125,3.648681640625,-2.9608154296875,1,2.0,1.0,1.0,2.0,80.00
2023-02-18 11:53:38.200,,,,,,,,,,,,,,,,,,,,,,,,,,,,,,,,,,,,,,/muse/elements/blink
2023-02-18 11:53:38.449,1.2459465,1.5022044,1.210184,0.9454573,0.46820664,0.92826337,0.6785561,0.58427286,0.56093574,0.5788224,0.3845657,1.0397766,0.46417734,0.41842133,0.6614382,0.8221294,0.064501934,-0.3326935,0.509026,0.7516578,793.7729,765.56775,730.10986,779.2674,751.4652,-0.17724609375,-0.068603515625,0.99432373046875,3.70849609375,0.22430419921875,-0.770111083984375,1,2.0,1.0,1.0,2.0,80.00
2023-02-18 11:53:39.349,,,,,,,,,,,,,,,,,,,,,,,,,,,,,,,,,,,,,,/muse/elements/blink
2023-02-18 11:53:39.458,1.2459465,1.5887394,1.210184,0.9454573,0.46820664,0.9571434,0.6785561,0.58427286,0.56093574,0.85513157,0.3845657,1.0397766,0.46417734,0.36955458,0.6614382,0.8221294,0.064501934,-0.24172564,0.509026,0.7516578,805.4579,792.96704,736.9597,788.5348,592.71063,-0.17816162109375,-0.0826416015625,0.9884033203125,1.12152099609375,-4.344024658203125,-0.9271240234375,1,2.0,1.0,1.0,2.0,80.00
2023-02-18 11:53:40.467,1.2459465,1.4806815,1.210184,0.9454573,0.46820664,1.0120094,0.6785561,0.58427286,0.56093574,0.9288415,0.3845657,1.0397766,0.46417734,0.3629241,0.6614382,0.8221294,0.064501934,-0.12044964,0.509026,0.7516578,789.7436,806.26373,761.53845,830.0366,783.2967,-0.1756591796875,-0.0970458984375,0.990966796875,2.235565185546875,-4.762725830078125,0.097198486328125,1,2.0,1.0,1.0,2.0,80.00
2023-02-18 11:53:41.067,,,,,,,,,,,,,,,,,,,,,,,,,,,,,,,,,,,,,,/muse/elements/blink
2023-02-18 11:53:41.481,1.2459465,1.2633593,1.3975178,0.6562721,0.46820664,0.8420893,1.310133,0.44812986,0.56093574,0.7077014,1.3258349,1.1534717,0.46417734,0.5918038,1.0028557,1.1404476,0.064501934,0.025953103,0.5392214,0.83316684,793.36993,798.60803,842.52747,816.7399,884.83514,-0.16912841796875,-0.10321044921875,0.9879150390625,1.21124267578125,-3.835601806640625,-0.37384033203125,1,1.0,1.0,1.0,1.0,85.00
2023-02-18 11:53:42.101,,,,,,,,,,,,,,,,,,,,,,,,,,,,,,,,,,,,,,/muse/elements/blink
2023-02-18 11:53:42.490,1.2459465,1.2633593,1.3975178,0.6562721,0.46820664,0.8420893,1.310133,0.44812986,0.56093574,0.7077014,1.3258349,1.1534717,0.46417734,0.5918038,1.0028557,1.1404476,0.064501934,0.025953103,0.5392214,0.83316684,777.25275,803.44324,779.2674,816.337,666.04395,-0.16375732421875,-0.091552734375,0.98590087890625,0.800018310546875,-1.6748046875,0.52337646484375,1,1.0,1.0,1.0,1.0,85.00
2023-02-18 11:53:43.499,1.2459465,1.0107638,1.3964237,1.1912427,0.46820664,0.83142823,1.3575923,0.9418537,0.56093574,0.7778525,1.175455,0.5965584,0.46417734,0.20937797,0.5934394,1.106399,0.064501934,-0.14713447,0.19220091,1.2212561,508.9011,853.4066,803.8461,723.2601,750.65936,-0.1783447265625,-0.0843505859375,0.985595703125,0.306549072265625,-3.386993408203125,-1.016845703125,1,1.0,1.0,1.0,1.0,85.00
2023-02-18 11:53:43.702,,,,,,,,,,,,,,,,,,,,,,,,,,,,,,,,,,,,,,/muse/elements/blink
2023-02-18 11:53:44.511,1.2459465,1.1396666,1.2785444,1.1912427,0.46820664,0.88164127,1.2327656,0.9418537,0.56093574,0.9525086,1.2129452,0.5965584,0.46417734,0.2870758,0.5144208,1.106399,0.064501934,-0.29010943,0.18676148,1.2212561,392.05127,789.34064,815.12823,770.80585,671.685,-0.17840576171875,-0.08563232421875,0.9989013671875,1.757049560546875,-0.829925537109375,5.659942626953125,1,1.0,1.0,1.0,1.0,85.00
2023-02-18 11:53:44.732,,,,,,,,,,,,,,,,,,,,,,,,,,,,,,,,,,,,,,/muse/elements/blink
2023-02-18 11:53:45.515,1.2459465,1.1177468,1.2862853,1.2456464,0.46820664,0.762815,1.1545018,1.0840149,0.56093574,0.9026985,1.1984272,1.3084761,0.46417734,0.37581924,0.5283922,1.6046517,0.064501934,-0.40492055,0.21905506,1.1413776,699.4872,787.326,772.8205,786.1172,631.39197,-0.1966552734375,-0.07177734375,0.98809814453125,3.6785888671875,-6.9384765625,0.40374755859375,1,1.0,1.0,1.0,1.0,85.00
2023-02-18 11:53:45.633,,,,,,,,,,,,,,,,,,,,,,,,,,,,,,,,,,,,,,/muse/elements/blink
2023-02-18 11:53:46.523,1.2459465,1.1319143,1.2862853,1.1422838,0.46820664,0.9193027,1.1545018,1.0297896,0.56093574,0.86620575,1.1984272,1.24472,0.46417734,0.48609897,0.5283922,1.6378844,0.064501934,-0.17776458,0.21905506,1.1680712,699.0842,792.96704,761.13556,815.9341,763.1502,-0.18359375,-0.0706787109375,0.99615478515625,2.75146484375,-4.80010986328125,-1.256103515625,1,1.0,1.0,1.0,1.0,85.00
2023-02-18 11:53:47.532,1.2459465,1.1196575,1.2862853,1.0912833,0.46820664,0.84606063,1.1545018,0.839969,0.56093574,1.0009431,1.1984272,1.1454258,0.46417734,0.3001053,0.5283922,0.9826186,0.064501934,0.035307705,0.21905506,0.8334464,668.0586,816.337,747.4359,822.381,967.8388,-0.1763916015625,-0.07037353515625,0.97869873046875,1.547698974609375,-3.865509033203125,0.216827392578125,1,1.0,1.0,1.0,1.0,85.00
