TimeStamp,Delta_TP9,Delta_AF7,Delta_AF8,Delta_TP10,Theta_TP9,Theta_AF7,Theta_AF8,Theta_TP10,Alpha_TP9,Alpha_AF7,Alpha_AF8,Alpha_TP10,Beta_TP9,Beta_AF7,Beta_AF8,Beta_TP10,Gamma_TP9,Gamma_AF7,Gamma_AF8,Gamma_TP10,RAW_TP9,RAW_AF7,RAW_AF8,RAW_TP10,AUX_RIGHT,Accelerometer_X,Accelerometer_Y,Accelerometer_Z,Gyro_X,Gyro_Y,Gyro_Z,HeadBandOn,HSI_TP9,HSI_AF7,HSI_AF8,HSI_TP10,Battery,Elements
2024-03-13 11:06:21.906,,,,,,,,,,,,,,,,,,,,,,,,,,,,,,,,,,,,,,/muse/event/connected Muse-99D3
2024-03-13 11:06:21.972,0.5610173,1.2067336,1.0796952,1.078037,0.41475084,0.9426126,1.2330319,1.3255525,0.93855965,0.68983376,0.5842974,1.0298558,0.8336313,0.6141186,0.20778713,0.9321409,0.44077662,0.09552881,-0.3750176,0.8759602,850.989,800.2198,801.8315,839.707,709.9634,0.33929443359375,0.09735107421875,0.9393310546875,2.205657958984375,-3.87298583984375,-1.00189208984375,1,2.0,1.0,1.0,2.0,25.00
2024-03-13 11:06:22.770,,,,,,,,,,,,,,,,,,,,,,,,,,,,,,,,,,,,,,/muse/elements/blink
2024-03-13 11:06:22.983,1.0063893,0.9510207,0.7409087,1.078037,0.48342824,0.4681042,0.19042678,1.3255525,0.5508477,0.54470044,0.15835537,1.0298558,0.716277,0.019417843,-0.22020535,0.9321409,0.27246687,-0.51467544,-0.4821611,0.8759602,808.2784,793.7729,781.685,807.47253,768.3883,0.34893798828125,0.0948486328125,0.9439697265625,2.474822998046875,-4.000091552734375,-1.532745361328125,1,1.0,1.0,1.0,1.0,25.00
2024-03-13 11:06:23.504,,,,,,,,,,,,,,,,,,,,,,,,,,,,,,,,,,,,,,/muse/elements/blink
2024-03-13 11:06:23.996,0.78215456,0.9703543,0.766275,1.078037,0.4127931,0.6496742,-0.040750105,1.3255525,0.42976716,0.43047258,-0.02000887,1.0298558,0.75613195,-0.27637106,-0.17695303,0.9321409,0.2081305,-0.44607422,-0.5324743,0.8759602,913.44324,782.0879,782.8938,865.4945,725.6777,0.31219482421875,0.10284423828125,0.93701171875,1.5850830078125,-5.480499267578125,0.9869384765625,1,1.0,1.0,1.0,1.0,25.00
2024-03-13 11:06:24.001,,,,,,,,,,,,,,,,,,,,,,,,,,,,,,,,,,,,,,/muse/elements/blink
2024-03-13 11:06:25.004,0.78215456,1.121757,0.766275,1.078037,0.4127931,0.8056476,-0.040750105,1.3255525,0.42976716,0.43047258,-0.02000887,1.0298558,0.75613195,-0.3560875,-0.17695303,0.9321409,0.2081305,-0.4075386,-0.5324743,0.8759602,805.05493,798.60803,794.17584,809.0842,777.25275,0.318115234375,0.1043701171875,0.9456787109375,1.622467041015625,-3.828125,-0.979461669921875,1,1.0,1.0,1.0,1.0,25.00
2024-03-13 11:06:26.012,1.1506928,0.7054175,0.60211855,1.3929498,0.79954135,0.15905975,-0.306923,0.9873612,0.86700016,0.22702663,0.039796695,1.0714183,0.5663525,0.01449172,0.012347997,0.646212,0.26801234,-0.17805369,-0.24540438,0.32173836,828.4249,796.5934,800.2198,838.49817,813.5165,0.317626953125,0.10382080078125,0.946044921875,1.158905029296875,-3.75335693359375,-1.77947998046875,1,1.0,1.0,1.0,1.0,25.00
2024-03-13 11:06:27.024,0.79286927,0.6275896,0.49400914,1.467523,0.6085355,0.023812031,0.086729854,1.0761446,0.9517839,0.4416274,0.23813884,1.3669686,0.5200856,0.14706717,0.14788988,0.68903154,0.26786816,-0.16862154,-0.11931438,0.46412057,828.4249,806.6667,789.7436,804.65204,723.2601,0.30889892578125,0.10272216796875,0.94659423828125,0.426177978515625,-3.491668701171875,-2.385101318359375,1,1.0,1.0,1.0,1.0,25.00
2024-03-13 11:06:28.036,1.109101,0.4743637,0.40080926,1.4952244,0.76679015,-0.17398295,0.23240711,1.2638012,0.94597495,0.43382484,0.2462741,1.3589046,0.52926165,0.061650034,8.5632206E-4,0.8332042,0.103562415,-0.3142892,-0.0174602,0.46721897,814.7253,821.1722,803.8461,811.50183,850.989,0.3135986328125,0.1060791015625,0.95477294921875,2.31781005859375,-4.366455078125,-0.201873779296875,1,1.0,1.0,1.0,1.0,25.00
2024-03-13 11:06:28.585,,,,,,,,,,,,,,,,,,,,,,,,,,,,,,,,,,,,,,/muse/elements/blink
2024-03-13 11:06:28.873,,,,,,,,,,,,,,,,,,,,,,,,,,,,,,,,,,,,,,/muse/elements/blink
2024-03-13 11:06:29.052,1.0578985,1.0081869,0.44697714,1.7041591,0.54809433,0.6884707,0.018949509,1.3506845,0.6994615,0.7322841,0.14688478,0.95307994,0.57394075,0.21927938,0.021214254,0.8787589,0.07809036,-0.31728646,-0.044879854,0.31914118,835.2747,823.1868,775.64105,844.94507,853.4066,0.32647705078125,0.1224365234375,0.93829345703125,1.368255615234375,-4.59075927734375,-1.562652587890625,1,1.0,1.0,1.0,1.0,25.00
2024-03-13 11:06:30.069,0.7933641,1.2340951,0.8716665,1.7041591,0.29295668,0.95709026,0.5929943,1.3506845,0.32997167,0.7322841,0.44029883,0.95307994,0.59035856,0.33598468,0.28374818,0.8787589,0.12499464,-0.13632718,0.16808942,0.31914118,901.75824,796.5934,773.6264,889.2674,695.05493,0.3114013671875,0.1143798828125,0.94500732421875,1.517791748046875,-4.209442138671875,-0.635528564453125,1,1.0,1.0,1.0,1.0,25.00
2024-03-13 11:06:30.171,,,,,,,,,,,,,,,,,,,,,,,,,,,,,,,,,,,,,,/muse/elements/blink
2024-03-13 11:06:30.622,,,,,,,,,,,,,,,,,,,,,,,,,,,,,,,,,,,,,,/muse/elements/blink
2024-03-13 11:06:31.085,0.7933641,1.4246215,1.1669165,1.7041591,0.29295668,1.1430168,0.995478,1.3506845,0.32997167,0.72697055,0.95303166,0.95307994,0.59035856,-0.046032973,0.21743605,0.8787589,0.12499464,-0.39937258,0.111519836,0.31914118,805.8608,811.9048,801.02563,806.6667,654.35895,0.31243896484375,0.11822509765625,0.94403076171875,1.592559814453125,-3.775787353515625,-1.323394775390625,1,2.0,1.0,1.0,2.0,25.00
2024-03-13 11:06:32.094,0.7933641,1.1443139,1.2409401,1.7041591,0.29295668,0.8814463,1.1130366,1.3506845,0.32997167,0.7262487,0.9488005,0.95307994,0.59035856,-0.14710748,0.08992361,0.8787589,0.12499464,-0.4764411,0.080096565,0.31914118,844.1392,811.50183,790.54944,821.5751,686.1905,0.31951904296875,0.1175537109375,0.94647216796875,1.188812255859375,-3.6785888671875,-1.24114990234375,1,2.0,1.0,1.0,2.0,25.00
2024-03-13 11:06:32.259,,,,,,,,,,,,,,,,,,,,,,,,,,,,,,,,,,,,,,/muse/elements/blink
2024-03-13 11:06:33.114,0.7933641,0.80591536,1.2409401,1.7041591,0.29295668,0.5249986,1.1130366,1.3506845,0.32997167,0.25675339,0.9488005,0.95307994,0.59035856,-0.057326056,0.08992361,0.8787589,0.12499464,-0.4807627,0.080096565,0.31914118,802.23444,807.0696,808.68134,827.2161,936.0073,0.31878662109375,0.1151123046875,0.94329833984375,1.682281494140625,-4.523468017578125,-0.665435791015625,1,2.0,1.0,1.0,2.0,25.00
2024-03-13 11:06:33.561,,,,,,,,,,,,,,,,,,,,,,,,,,,,,,,,,,,,,,/muse/elements/blink
2024-03-13 11:06:34.139,0.7933641,1.0086322,1.2409401,1.7041591,0.29295668,0.60959256,1.1130366,1.3506845,0.32997167,0.1274143,0.9488005,0.95307994,0.59035856,0.17527443,0.08992361,0.8787589,0.12499464,-0.59600013,0.080096565,0.31914118,794.17584,800.6227,782.8938,824.7985,707.1429,0.31414794921875,0.1195068359375,0.94110107421875,1.876678466796875,-3.87298583984375,-1.7047119140625,1,2.0,1.0,1.0,2.0,25.00
2024-03-13 11:06:35.154,1.0815612,0.290326,0.8953088,1.7041591,0.8623628,0.113396004,0.19837838,1.3506845,0.9528199,0.002868205,0.29814017,0.95307994,1.0125617,-0.13111642,0.4550741,0.8787589,0.11677248,-0.039841186,-0.20218964,0.31914118,849.3773,827.619,817.9487,824.3956,580.2198,0.30767822265625,0.11865234375,0.94854736328125,1.951446533203125,-4.41131591796875,-0.844879150390625,1,1.0,1.0,1.0,1.0,25.00
2024-03-13 11:06:35.388,,,,,,,,,,,,,,,,,,,,,,,,,,,,,,,,,,,,,,/muse/elements/blink
2024-03-13 11:06:35.651,,,,,,,,,,,,,,,,,,,,,,,,,,,,,,,,,,,,,,/muse/elements/blink
2024-03-13 11:06:35.982,,,,,,,,,,,,,,,,,,,,,,,,,,,,,,,,,,,,,,/muse/elements/blink
2024-03-13 11:06:36.161,1.0815612,1.2154896,0.8953088,1.7041591,0.8623628,0.8606044,0.19837838,1.3506845,0.9528199,0.76056737,0.29814017,0.95307994,1.0125617,0.07792416,0.4550741,0.8787589,0.11677248,0.03471602,-0.20218964,0.31914118,789.7436,784.10254,816.7399,807.0696,754.68866,0.3184814453125,0.1160888671875,0.94598388671875,1.786956787109375,-4.5458984375,-1.60003662109375,1,1.0,1.0,1.0,1.0,25.00
2024-03-13 11:06:36.881,,,,,,,,,,,,,,,,,,,,,,,,,,,,,,,,,,,,,,/muse/elements/blink
2024-03-13 11:06:37.164,1.0975728,1.2636749,0.82449675,1.7041591,0.7612424,0.936824,0.22866175,1.3506845,0.8867955,0.7732729,0.24493581,0.95307994,1.0286095,0.107953705,0.53707135,0.8787589,0.099562325,-0.048608717,-0.20837954,0.31914118,837.28937,807.0696,819.5604,837.6923,689.81683,0.32098388671875,0.12261962890625,0.94415283203125,1.742095947265625,-3.686065673828125,-1.024322509765625,1,1.0,1.0,1.0,1.0,25.00
2024-03-13 11:06:37.813,,,,,,,,,,,,,,,,,,,,,,,,,,,,,,,,,,,,,,/muse/elements/blink
2024-03-13 11:06:38.185,1.0555888,0.54910594,0.726271,1.5109266,1.1317014,0.20393553,0.27919304,1.3073099,1.2369856,0.33612806,0.147108,1.2708678,0.9138731,0.008982389,0.258259,0.96484286,0.2852908,-0.27805665,-0.07765096,0.39742434,837.28937,819.15753,801.4286,836.8865,620.5128,0.31524658203125,0.12017822265625,0.94879150390625,1.443023681640625,-3.656158447265625,-0.171966552734375,1,1.0,1.0,1.0,1.0,25.00
2024-03-13 11:06:39.195,0.7231868,0.6724103,0.4729913,1.0480863,0.803085,0.07299608,0.102504335,0.77608943,1.0604345,0.23473606,0.22793907,1.1148473,0.63105947,-0.11974184,0.0756582,0.46462736,0.14604141,-0.28193837,-0.3844325,-0.01598403,821.978,811.0989,807.8755,847.76556,643.8828,0.3056640625,0.1141357421875,0.94769287109375,0.949554443359375,-3.48419189453125,-1.31591796875,1,1.0,1.0,1.0,1.0,25.00
2024-03-13 11:06:40.183,,,,,,,,,,,,,,,,,,,,,,,,,,,,,,,,,,,,,,/muse/elements/blink
2024-03-13 11:06:40.204,0.91650426,0.48533872,0.532328,0.9041901,1.0277809,0.11914544,0.35704598,1.0123197,0.86415654,0.1702225,0.24076223,0.9948829,0.57856864,-0.1303076,0.049073953,0.45151663,0.13728622,-0.1598723,-0.30636516,0.1923911,804.2491,820.3663,822.381,789.34064,767.98535,0.31170654296875,0.10772705078125,0.94281005859375,0.82244873046875,-3.431854248046875,-1.12152099609375,1,1.0,1.0,1.0,1.0,25.00
2024-03-13 11:06:41.221,0.87014943,0.8837296,1.0287807,0.9536062,0.8552606,0.9125557,1.0523319,1.041516,0.6927395,0.41790253,0.99919057,0.969926,0.6069426,0.025902214,0.22339374,0.47936803,0.1993251,-0.40469697,-0.05347791,0.3515976,793.36993,810.293,799.81683,823.5897,579.011,0.31097412109375,0.11407470703125,0.9462890625,1.876678466796875,-3.701019287109375,-0.949554443359375,1,1.0,1.0,1.0,1.0,25.00
2024-03-13 11:06:41.991,,,,,,,,,,,,,,,,,,,,,,,,,,,,,,,,,,,,,,/muse/elements/blink
2024-03-13 11:06:42.237,0.705012,0.6958282,0.9911581,0.9536062,0.6940696,0.5498467,1.0229503,1.041516,0.36541393,0.37622276,0.99919057,0.969926,0.32645246,-0.10049935,0.14366645,0.47936803,0.4061445,-0.4676889,-0.022889914,0.3515976,838.0952,802.6374,801.02563,833.2601,759.5238,0.3099365234375,0.12005615234375,0.94268798828125,1.622467041015625,-3.626251220703125,-1.0467529296875,1,1.0,1.0,1.0,1.0,25.00
2024-03-13 11:06:43.250,0.705012,0.45369747,0.6165916,0.9536062,0.6940696,-0.105469346,0.22017959,1.041516,0.36541393,0.12210819,0.16915922,0.969926,0.32645246,-0.13076201,0.045787048,0.47936803,0.4061445,-0.33757484,-0.0025509277,0.3515976,766.77655,772.01465,772.8205,775.64105,795.38464,0.31439208984375,0.11492919921875,0.94732666015625,1.7645263671875,-3.96270751953125,-1.143951416015625,1,1.0,1.0,1.0,1.0,25.00
2024-03-13 11:06:44.270,0.9315522,1.3487229,1.078899,0.9091138,0.5938619,0.2927982,0.7458003,0.32796335,0.67676413,0.30489814,0.28907377,0.393319,0.23216361,0.15315032,0.05513467,0.5661113,-0.104954354,-0.30677968,-0.22875592,-0.011330343,848.1685,779.2674,772.01465,838.9011,736.55676,0.31378173828125,0.1182861328125,0.941650390625,1.36077880859375,-3.81317138671875,-2.0037841796875,1,1.0,1.0,1.0,1.0,25.00
2024-03-13 11:06:44.416,,,,,,,,,,,,,,,,,,,,,,,,,,,,,,,,,,,,,,/muse/elements/blink
2024-03-13 11:06:44.684,,,,,,,,,,,,,,,,,,,,,,,,,,,,,,,,,,,,,,/muse/elements/blink
2024-03-13 11:06:45.031,,,,,,,,,,,,,,,,,,,,,,,,,,,,,,,,,,,,,,/muse/elements/blink
2024-03-13 11:06:45.278,1.0114112,1.365687,1.0085019,0.9091138,0.29712874,0.59197605,0.8791776,0.32796335,0.5027674,0.4294504,0.20713474,0.393319,0.23719163,0.35927042,0.07075109,0.5661113,-0.085733935,-0.23341294,-0.38941604,-0.011330343,804.65204,802.23444,801.8315,833.663,754.2857,0.3106689453125,0.120361328125,0.94854736328125,1.89910888671875,-4.000091552734375,-0.8074951171875,1,1.0,1.0,1.0,1.0,25.00
2024-03-13 11:06:46.281,1.0114112,0.9390889,0.7495774,0.9091138,0.29712874,0.7976162,0.31327778,0.32796335,0.5027674,0.60513246,0.43916106,0.393319,0.23719163,0.26798552,0.12897518,0.5661113,-0.085733935,-0.32674333,-0.38757956,-0.011330343,873.95605,823.9927,810.696,861.4652,813.91943,0.312255859375,0.1265869140625,0.9427490234375,2.0037841796875,-4.0673828125,-0.725250244140625,1,1.0,1.0,1.0,1.0,25.00
2024-03-13 11:06:47.291,0.9375937,0.21137123,0.6014272,1.0744144,1.3158671,0.15959136,0.19398148,1.1939284,1.1836538,0.40897572,0.4684501,1.0111903,0.6576506,-0.0063264947,0.22268134,0.6559203,0.2933153,-0.32464188,-0.15453935,0.40870935,835.2747,814.3223,813.5165,819.9634,660.40295,0.3114013671875,0.1163330078125,0.946533203125,1.45050048828125,-3.491668701171875,-1.2261962890625,1,1.0,1.0,1.0,1.0,25.00
2024-03-13 11:06:48.182,,,,,,,,,,,,,,,,,,,,,,,,,,,,,,,,,,,,,,/muse/elements/blink
2024-03-13 11:06:48.310,0.8535239,0.83214754,0.6787943,1.2224226,1.3239287,0.25397652,0.4386469,1.3156856,1.2166551,0.441147,0.587267,0.97865963,0.8453165,0.05531486,0.34982166,0.8194088,0.41722515,-0.1415953,0.0781758,0.58546233,846.1539,809.4872,807.8755,840.9158,662.4176,0.310546875,0.11395263671875,0.94915771484375,1.9140625,-4.007568359375,-0.515899658203125,1,1.0,1.0,1.0,1.0,25.00
2024-03-13 11:06:49.322,0.84536713,1.0981308,0.84336084,1.2774564,1.0226593,0.2541944,0.7270416,1.2833756,1.0876307,0.41969225,0.647631,0.9078483,0.79754454,-0.0066886735,0.4969433,0.81957865,0.4042481,-0.10952647,0.049940776,0.6612846,786.1172,820.3663,813.91943,812.71063,680.9524,0.31109619140625,0.11810302734375,0.94146728515625,1.92901611328125,-3.72344970703125,-1.375732421875,1,1.0,1.0,1.0,1.0,25.00
2024-03-13 11:06:49.578,,,,,,,,,,,,,,,,,,,,,,,,,,,,,,,,,,,,,,/muse/elements/blink
2024-03-13 11:06:50.213,,,,,,,,,,,,,,,,,,,,,,,,,,,,,,,,,,,,,,/muse/elements/blink
2024-03-13 11:06:50.326,0.84536713,1.0863388,1.222578,1.2774564,1.0226593,0.7477102,1.0661663,1.2833756,1.0876307,0.6053547,1.0721898,0.9078483,0.79754454,-0.030223848,0.5034207,0.81957865,0.4042481,-0.3930326,-0.11037485,0.6612846,898.1319,791.75824,779.2674,906.99634,697.0696,0.30548095703125,0.122314453125,0.949462890625,1.42059326171875,-3.715972900390625,-0.9869384765625,1,1.0,1.0,1.0,1.0,25.00
2024-03-13 11:06:51.348,0.84536713,1.3286083,1.3858708,1.2774564,1.0226593,1.234288,1.2167336,1.2833756,1.0876307,0.7069498,1.06319,0.9078483,0.79754454,0.09349167,0.37501395,0.81957865,0.4042481,-0.3550378,-0.27175525,0.6612846,790.54944,801.8315,805.05493,819.9634,593.1135,0.3148193359375,0.12060546875,0.947021484375,1.3458251953125,-3.6785888671875,-1.039276123046875,1,2.0,1.0,1.0,2.0,25.00
2024-03-13 11:06:52.111,,,,,,,,,,,,,,,,,,,,,,,,,,,,,,,,,,,,,,/muse/elements/blink
2024-03-13 11:06:52.358,0.84536713,0.35377282,-0.071472205,1.2774564,1.0226593,0.23172191,0.4808828,1.2833756,1.0876307,0.38941586,-0.061919034,0.9078483,0.79754454,-0.038471196,0.055241365,0.81957865,0.4042481,-0.46931237,-0.31924108,0.6612846,844.94507,811.50183,795.38464,813.5165,694.65204,0.31793212890625,0.1279296875,0.94268798828125,1.757049560546875,-4.5758056640625,-1.256103515625,1,2.0,1.0,1.0,2.0,25.00
2024-03-13 11:06:53.375,0.84536713,0.60684246,-0.017953763,1.2774564,1.0226593,0.25478572,0.5047885,1.2833756,1.0876307,0.47700036,-0.06697068,0.9078483,0.79754454,-0.0044528423,0.072382,0.81957865,0.4042481,-0.49594104,-0.3223686,0.6612846,818.7546,823.9927,828.022,837.6923,739.7802,0.30859375,0.12548828125,0.9425048828125,1.435546875,-4.209442138671875,-1.1663818359375,1,2.0,1.0,1.0,2.0,25.00
2024-03-13 11:06:53.655,,,,,,,,,,,,,,,,,,,,,,,,,,,,,,,,,,,,,,/muse/elements/blink
2024-03-13 11:06:54.390,0.84536713,0.81072783,0.6307426,1.2774564,1.0226593,0.36236957,0.34054083,1.2833756,1.0876307,0.38046128,0.09941218,0.9078483,0.79754454,-0.11248444,-0.008138496,0.81957865,0.4042481,-0.4527531,-0.24778166,0.6612846,805.05493,820.7692,816.7399,810.293,679.7436,0.3116455078125,0.12432861328125,0.9471435546875,1.652374267578125,-3.910369873046875,-0.755157470703125,1,2.0,1.0,1.0,2.0,25.00
2024-03-13 11:06:55.402,0.799642,0.7115143,0.8055275,0.5356627,1.1074983,0.4708626,0.47546408,0.83218706,0.911136,0.5461118,0.39289218,0.6260603,0.76307464,0.18046434,0.43146792,0.7889686,0.20102806,0.022495214,-0.0071125347,0.3296226,801.8315,820.7692,817.5458,813.91943,727.6923,0.30914306640625,0.1287841796875,0.95501708984375,1.936492919921875,-4.209442138671875,-1.24114990234375,1,1.0,1.0,1.0,1.0,25.00
2024-03-13 11:06:56.421,1.035564,0.76925683,0.8719945,1.0045476,1.1009873,0.48171613,0.48938364,1.0080808,0.9435309,0.57626605,0.5567442,0.94357395,0.7428568,0.14012623,0.52184355,0.89080083,0.4151642,-0.14475796,0.111176066,0.57985693,837.28937,807.47253,815.9341,840.9158,762.74725,0.311279296875,0.13372802734375,0.94183349609375,1.936492919921875,-3.57391357421875,-1.413116455078125,1,1.0,1.0,1.0,1.0,25.00
2024-03-13 11:06:57.429,1.02347,0.5297056,0.62640107,1.0846119,0.7468955,0.1841367,0.3810598,0.69403356,0.9397856,0.44922215,0.52374744,0.89315987,0.5108012,-0.0061230604,0.39907587,0.7986907,0.24624945,-0.51121736,0.07578207,0.37375045,788.5348,815.9341,817.5458,815.5311,585.05493,0.30828857421875,0.1358642578125,0.9432373046875,1.95892333984375,-4.119720458984375,-0.366363525390625,1,1.0,1.0,1.0,1.0,25.00
2024-03-13 11:06:58.442,0.77841,0.31079188,0.47078297,0.5710286,0.45124632,-0.089314714,-0.03694007,0.32250565,0.8208378,0.2480862,0.21491085,0.57430124,0.43961585,-0.0478709,-0.10987148,0.4579936,-0.1360464,-0.36564794,-0.37632978,-0.06662979,837.6923,822.381,797.3993,813.5165,682.5641,0.31549072265625,0.12652587890625,0.94390869140625,1.256103515625,-3.828125,-1.3458251953125,1,1.0,1.0,1.0,1.0,25.00
2024-03-13 11:06:59.451,0.7858629,0.36500376,0.87089217,0.73849314,0.60650533,-0.038402583,0.09947339,0.5648095,1.101421,0.24539961,0.5674452,0.8340988,0.5156964,0.047877863,0.07724189,0.5079843,0.13880925,-0.21199381,-0.20027244,0.21154861,798.60803,807.0696,808.68134,823.1868,987.5824,0.31378173828125,0.12652587890625,0.94189453125,1.3458251953125,-3.641204833984375,-1.173858642578125,1,1.0,1.0,1.0,1.0,25.00
2024-03-13 11:07:00.154,,,,,,,,,,,,,,,,,,,,,,,,,,,,,,,,,,,,,,/muse/elements/blink
2024-03-13 11:07:00.453,,,,,,,,,,,,,,,,,,,,,,,,,,,,,,,,,,,,,,/muse/elements/blink
2024-03-13 11:07:00.476,0.74914426,0.5208919,0.9276559,0.8571874,0.5517148,0.16084401,0.111137986,0.8197376,1.1182353,0.18004909,0.44591895,0.7487313,0.58382857,-0.061283108,0.18020673,0.4632177,0.22678737,-0.25783992,-0.23981914,0.29532406,873.1502,800.6227,817.1429,849.7802,736.55676,0.318115234375,0.1297607421875,0.93695068359375,1.36077880859375,-5.45806884765625,-1.024322509765625,1,1.0,1.0,1.0,1.0,25.00
2024-03-13 11:07:01.183,,,,,,,,,,,,,,,,,,,,,,,,,,,,,,,,,,,,,,/muse/elements/blink
2024-03-13 11:07:01.353,,,,,,,,,,,,,,,,,,,,,,,,,,,,,,,,,,,,,,/muse/elements/blink
2024-03-13 11:07:01.488,0.3745138,1.1375457,1.1077578,0.81453216,0.16419217,0.95696986,0.90851915,0.9082418,0.6989747,0.42296132,0.08038368,0.51400536,0.63952595,-0.31417552,0.02701141,0.3868256,0.045603093,-0.31456625,-0.33792302,0.23887558,690.6227,850.58606,861.8681,724.4689,633.4066,0.33563232421875,0.13751220703125,0.9361572265625,1.79443359375,-3.835601806640625,-1.637420654296875,1,1.0,1.0,1.0,1.0,25.00
2024-03-13 11:07:01.674,,,,,,,,,,,,,,,,,,,,,,,,,,,,,,,,,,,,,,/muse/elements/blink
2024-03-13 11:07:02.504,0.3745138,1.4091051,1.1077578,0.81453216,0.16419217,1.1163635,0.90851915,0.9082418,0.6989747,0.59761465,0.08038368,0.51400536,0.63952595,-0.18099998,0.02701141,0.3868256,0.045603093,-0.29179913,-0.33792302,0.23887558,834.0659,807.0696,812.3077,835.6777,842.9304,0.32666015625,0.12774658203125,0.93756103515625,1.1065673828125,-3.701019287109375,-0.695343017578125,1,1.0,1.0,1.0,1.0,25.00
2024-03-13 11:07:03.529,0.6639339,0.80632013,0.34947383,0.0865275,0.77285045,0.4274745,0.04980339,0.5044621,0.93458086,0.47773367,0.21226306,0.91704285,0.5932006,-0.029016964,0.124789156,0.5338178,0.078602746,-0.39362875,0.005718447,0.11599866,781.685,810.293,822.7839,802.23444,657.98535,0.3280029296875,0.12933349609375,0.94549560546875,1.712188720703125,-4.26177978515625,-0.261688232421875,1,1.0,1.0,1.0,1.0,20.00
2024-03-13 11:07:04.219,,,,,,,,,,,,,,,,,,,,,,,,,,,,,,,,,,,,,,/muse/elements/blink
2024-03-13 11:07:04.542,0.8051273,0.6874918,0.645761,0.84241545,0.72560626,0.31957316,0.44284454,0.6740937,1.0679766,0.48226723,0.45060918,1.1874093,0.867327,0.06248078,0.40401882,1.0172071,0.14703658,-0.37361664,0.11166242,0.3565276,851.79486,823.1868,808.68134,846.9597,695.4579,0.326416015625,0.13201904296875,0.94451904296875,1.951446533203125,-4.029998779296875,-1.188812255859375,1,1.0,1.0,1.0,1.0,20.00
2024-03-13 11:07:05.243,,,,,,,,,,,,,,,,,,,,,,,,,,,,,,,,,,,,,,/muse/elements/blink
2024-03-13 11:07:05.551,0.9483616,1.090674,0.89090306,0.84241545,0.74998534,0.6704677,0.7229703,0.6740937,1.0541178,0.5444627,0.34740847,1.1874093,1.0358576,-0.064630814,0.62176496,1.0172071,0.27708763,-0.50212246,0.058951214,0.3565276,750.65936,826.4103,844.1392,777.25275,741.39197,0.3245849609375,0.13470458984375,0.94488525390625,1.854248046875,-3.641204833984375,-0.844879150390625,1,1.0,1.0,1.0,1.0,20.00
2024-03-13 11:07:05.768,,,,,,,,,,,,,,,,,,,,,,,,,,,,,,,,,,,,,,/muse/elements/blink
2024-03-13 11:07:06.553,0.9483616,1.2403488,0.89090306,0.84241545,0.74998534,0.89835507,0.7229703,0.6740937,1.0541178,0.5352643,0.34740847,1.1874093,1.0358576,-0.16010994,0.62176496,1.0172071,0.27708763,-0.31151992,0.058951214,0.3565276,853.8095,817.5458,810.293,852.6007,724.0659,0.3314208984375,0.12371826171875,0.934814453125,0.7476806640625,-3.84307861328125,-1.831817626953125,1,2.0,1.0,1.0,2.0,20.00
2024-03-13 11:07:07.255,,,,,,,,,,,,,,,,,,,,,,,,,,,,,,,,,,,,,,/muse/elements/blink
2024-03-13 11:07:07.573,0.9483616,0.92464304,0.89090306,0.84241545,0.74998534,0.69476813,0.7229703,0.6740937,1.0541178,0.55913216,0.34740847,1.1874093,1.0358576,0.061786875,0.62176496,1.0172071,0.27708763,-0.288864,0.058951214,0.3565276,865.4945,813.91943,794.57874,852.6007,641.8681,0.33221435546875,0.12371826171875,0.9412841796875,2.452392578125,-3.3197021484375,-1.07666015625,1,2.0,1.0,1.0,2.0,20.00
2024-03-13 11:07:07.578,,,,,,,,,,,,,,,,,,,,,,,,,,,,,,,,,,,,,,/muse/elements/blink
2024-03-13 11:07:08.186,,,,,,,,,,,,,,,,,,,,,,,,,,,,,,,,,,,,,,/muse/elements/blink
2024-03-13 11:07:08.478,,,,,,,,,,,,,,,,,,,,,,,,,,,,,,,,,,,,,,/muse/elements/blink
2024-03-13 11:07:08.575,0.9483616,1.3407875,0.89090306,0.84241545,0.74998534,1.0518901,0.7229703,0.6740937,1.0541178,0.9718131,0.34740847,1.1874093,1.0358576,0.30124983,0.62176496,1.0172071,0.27708763,-0.33402276,0.058951214,0.3565276,835.2747,813.5165,807.47253,832.4542,632.6007,0.32342529296875,0.12872314453125,0.94317626953125,1.74957275390625,-3.887939453125,-0.83740234375,1,2.0,1.0,1.0,2.0,20.00
2024-03-13 11:07:09.071,,,,,,,,,,,,,,,,,,,,,,,,,,,,,,,,,,,,,,/muse/elements/blink
2024-03-13 11:07:09.398,,,,,,,,,,,,,,,,,,,,,,,,,,,,,,,,,,,,,,/muse/elements/blink
2024-03-13 11:07:09.592,0.9483616,1.391654,0.89090306,0.84241545,0.74998534,0.9947817,0.7229703,0.6740937,1.0541178,0.97344583,0.34740847,1.1874093,1.0358576,0.26474884,0.62176496,1.0172071,0.27708763,-0.38668686,0.058951214,0.3565276,861.06226,807.8755,797.8022,843.3333,777.25275,0.32275390625,0.136474609375,0.9383544921875,0.88226318359375,-3.78326416015625,-1.846771240234375,1,2.0,1.0,1.0,2.0,20.00
2024-03-13 11:07:10.613,0.9483616,1.0135188,0.89090306,0.84241545,0.74998534,0.7990458,0.7229703,0.6740937,1.0541178,0.47862297,0.34740847,1.1874093,1.0358576,-0.0055745947,0.62176496,1.0172071,0.27708763,-0.33632272,0.058951214,0.3565276,821.1722,822.381,821.5751,830.0366,746.2271,0.3226318359375,0.129150390625,0.9443359375,1.757049560546875,-3.93280029296875,-0.58319091796875,1,2.0,1.0,1.0,2.0,20.00
2024-03-13 11:07:11.620,0.67517114,0.47589642,0.8051932,0.80123174,0.5755775,0.18718898,0.6752851,0.9752358,0.35841575,0.30153716,0.7104725,0.9513187,0.4186753,-0.15437883,0.29015216,0.55775875,-0.12872098,-0.31032246,-0.28581166,0.034351956,817.9487,824.3956,820.3663,830.84247,750.65936,0.32110595703125,0.12890625,0.93841552734375,1.607513427734375,-3.45428466796875,-1.323394775390625,1,1.0,1.0,1.0,1.0,20.00
2024-03-13 11:07:11.930,,,,,,,,,,,,,,,,,,,,,,,,,,,,,,,,,,,,,,/muse/elements/blink
2024-03-13 11:07:12.639,0.66059226,1.0729923,0.7026738,0.8474887,0.57010823,0.74964595,0.57144886,0.7176154,0.12915997,0.4130389,0.49186146,0.3371044,0.31170768,-0.061082087,0.047153417,0.5563335,-0.14508428,-0.42301944,-0.059219442,-0.290663,783.2967,796.99634,789.34064,828.022,654.7619,0.32745361328125,0.1397705078125,0.9351806640625,1.24114990234375,-4.26177978515625,-1.36077880859375,1,1.0,1.0,1.0,1.0,20.00
2024-03-13 11:07:12.934,,,,,,,,,,,,,,,,,,,,,,,,,,,,,,,,,,,,,,/muse/elements/blink
2024-03-13 11:07:13.174,,,,,,,,,,,,,,,,,,,,,,,,,,,,,,,,,,,,,,/muse/elements/blink
2024-03-13 11:07:13.661,0.54275405,1.2022972,0.75804615,0.8474887,0.59922606,1.1208963,0.6369049,0.7176154,0.027769407,0.4358021,0.43440166,0.3371044,0.2365634,0.003955077,0.07731054,0.5563335,-0.10761057,-0.49316692,0.13043472,-0.290663,830.84247,809.0842,810.696,821.978,802.23444,0.3255615234375,0.1312255859375,0.942626953125,1.83929443359375,-3.955230712890625,-0.785064697265625,1,1.0,1.0,1.0,1.0,20.00
2024-03-13 11:07:14.289,,,,,,,,,,,,,,,,,,,,,,,,,,,,,,,,,,,,,,/muse/elements/blink
2024-03-13 11:07:14.677,0.54275405,0.9952084,0.75804615,0.8474887,0.59922606,0.907615,0.6369049,0.7176154,0.027769407,0.5666168,0.43440166,0.3371044,0.2365634,0.093832836,0.07731054,0.5563335,-0.10761057,-0.4219407,0.13043472,-0.290663,705.12823,853.8095,890.4762,725.6777,688.60803,0.32275390625,0.134521484375,0.94219970703125,1.831817626953125,-3.476715087890625,-0.575714111328125,1,2.0,1.0,1.0,2.0,25.00
2024-03-13 11:07:14.917,,,,,,,,,,,,,,,,,,,,,,,,,,,,,,,,,,,,,,/muse/elements/blink
2024-03-13 11:07:15.284,,,,,,,,,,,,,,,,,,,,,,,,,,,,,,,,,,,,,,/muse/elements/blink
2024-03-13 11:07:15.688,0.54275405,1.3319068,0.75804615,0.8474887,0.59922606,1.0391202,0.6369049,0.7176154,0.027769407,0.7719152,0.43440166,0.3371044,0.2365634,0.1515896,0.07731054,0.5563335,-0.10761057,-0.1864536,0.13043472,-0.290663,846.55676,812.71063,801.02563,829.6337,956.9597,0.31756591796875,0.133056640625,0.93817138671875,1.18133544921875,-3.15521240234375,-1.697235107421875,1,2.0,1.0,1.0,2.0,25.00
2024-03-13 11:07:16.700,0.54275405,1.2115667,0.75804615,0.8474887,0.59922606,1.092313,0.6369049,0.7176154,0.027769407,0.7845341,0.43440166,0.3371044,0.2365634,0.2182091,0.07731054,0.5563335,-0.10761057,-0.3213518,0.13043472,-0.290663,799.011,808.2784,803.0403,822.7839,717.2161,0.32147216796875,0.1307373046875,0.9368896484375,1.62994384765625,-3.69354248046875,-0.95703125,1,2.0,1.0,1.0,2.0,25.00
2024-03-13 11:07:17.705,0.3981133,0.34922624,0.05432659,0.6310639,0.54481566,-0.11590687,-0.3238206,0.66898304,0.6893042,0.20483439,-0.068173245,0.37154806,0.5097184,0.0575685,0.19758752,0.4250154,-0.35395142,-0.38953286,-0.23138613,0.09435386,804.65204,798.60803,833.2601,789.7436,660.80585,0.32794189453125,0.126220703125,0.96453857421875,1.54022216796875,-4.194488525390625,-0.31402587890625,1,1.0,1.0,1.0,1.0,25.00
2024-03-13 11:07:18.721,0.6042923,0.028122675,0.31093004,0.6511969,0.5926989,-0.14771621,0.24830006,0.6958682,0.90321857,0.073643334,0.5344401,0.41871634,0.6961218,-8.0079667E-4,0.3340923,0.41161966,0.3317222,-0.32686985,-0.14289086,0.13577524,796.99634,815.5311,808.68134,805.8608,767.1795,0.3238525390625,0.1302490234375,0.9364013671875,1.667327880859375,-4.20196533203125,-1.06170654296875,1,1.0,1.0,1.0,1.0,25.00
2024-03-13 11:07:19.730,0.834687,0.059460457,0.58783734,1.0587733,0.81568944,-0.15524969,0.41127473,0.6262233,1.0508159,0.25905207,0.5433461,1.2659149,0.6837895,0.08660537,0.3940155,0.97259843,0.47864646,-0.30472872,0.23810846,0.2884433,843.73627,807.0696,815.9341,838.0952,844.5421,0.31414794921875,0.1280517578125,0.94171142578125,2.011260986328125,-3.87298583984375,-1.263580322265625,1,1.0,1.0,1.0,1.0,25.00
2024-03-13 11:07:20.038,,,,,,,,,,,,,,,,,,,,,,,,,,,,,,,,,,,,,,/muse/elements/blink
2024-03-13 11:07:20.737,0.54275525,0.87848604,0.42423415,1.0569402,0.7112685,0.6614869,0.022455657,0.5400442,0.50056964,0.27496862,0.31256106,1.2320186,0.4150065,-0.08133461,0.10364943,0.9390371,0.4109209,-0.4529177,0.47577032,0.30242535,828.8278,798.20514,802.6374,810.696,622.9304,0.31341552734375,0.13043212890625,0.9415283203125,1.92901611328125,-4.089813232421875,-0.575714111328125,1,1.0,1.0,1.0,1.0,25.00
2024-03-13 11:07:20.972,,,,,,,,,,,,,,,,,,,,,,,,,,,,,,,,,,,,,,/muse/elements/blink
2024-03-13 11:07:21.753,0.62064314,1.2144281,0.41815802,1.0569402,0.73075986,0.93671536,0.043932337,0.5400442,0.4221428,0.3294776,0.30244857,1.2320186,0.46298295,-0.104974054,0.10604573,0.9390371,0.47470835,-0.4499721,0.53507113,0.30242535,781.685,803.44324,803.0403,811.9048,611.2454,0.3187255859375,0.13031005859375,0.94366455078125,1.592559814453125,-3.970184326171875,-1.039276123046875,1,1.0,1.0,1.0,1.0,25.00
2024-03-13 11:07:21.968,,,,,,,,,,,,,,,,,,,,,,,,,,,,,,,,,,,,,,/muse/elements/blink
2024-03-13 11:07:22.400,,,,,,,,,,,,,,,,,,,,,,,,,,,,,,,,,,,,,,/muse/elements/blink
2024-03-13 11:07:22.784,0.62064314,1.1676122,0.41815802,1.0569402,0.73075986,1.1310577,0.043932337,0.5400442,0.4221428,0.6104904,0.30244857,1.2320186,0.46298295,0.12444093,0.10604573,0.9390371,0.47470835,-0.24175024,0.53507113,0.30242535,801.8315,819.15753,813.1135,818.3516,691.8315,0.32183837890625,0.12969970703125,0.941650390625,1.906585693359375,-4.463653564453125,-0.91217041015625,1,2.0,1.0,1.0,2.0,25.00
2024-03-13 11:07:23.787,0.62064314,1.0296943,0.41815802,1.0569402,0.73075986,1.0203116,0.043932337,0.5400442,0.4221428,0.6654405,0.30244857,1.2320186,0.46298295,0.1862044,0.10604573,0.9390371,0.47470835,-0.36120856,0.53507113,0.30242535,792.96704,809.89014,808.68134,823.9927,689.41394,0.32403564453125,0.13165283203125,0.93359375,1.36077880859375,-3.461761474609375,-1.42059326171875,1,2.0,1.0,1.0,2.0,25.00
2024-03-13 11:07:24.794,0.6386511,0.07444446,0.8843998,0.79699165,0.3535648,0.030530391,0.515974,0.59742665,0.5134481,0.1386636,0.53110677,0.92190707,0.564898,0.007558115,0.32089192,0.3866541,-0.25786707,-0.5351791,-0.14376217,-0.14954466,886.4469,787.72894,776.04395,875.9707,709.15753,0.31842041015625,0.124755859375,0.94061279296875,0.785064697265625,-3.050537109375,-1.368255615234375,1,1.0,1.0,1.0,1.0,25.00
2024-03-13 11:07:24.823,,,,,,,,,,,,,,,,,,,,,,,,,,,,,,,,,,,,,,/muse/elements/blink
2024-03-13 11:07:25.118,,,,,,,,,,,,,,,,,,,,,,,,,,,,,,,,,,,,,,/muse/elements/blink
2024-03-13 11:07:25.804,0.27985224,1.3799065,1.1433384,0.5537729,0.26765755,1.0604608,0.727361,-0.25017753,0.15220313,0.6125077,0.47644398,0.2825002,0.39057392,-0.19473298,0.36841854,0.073650196,-0.36432758,-0.53962636,-0.41494763,-0.3111431,784.90845,809.0842,812.71063,813.5165,700.293,0.32318115234375,0.13037109375,0.9425048828125,0.979461669921875,-3.701019287109375,-1.2261962890625,1,1.0,1.0,1.0,1.0,25.00
2024-03-13 11:07:26.819,1.2924858,1.1308306,0.51253515,0.9912391,1.3059179,0.8106763,0.31324092,1.1433432,1.0237162,0.5439126,0.2330018,0.6923069,0.48408425,-0.21895239,-0.09154977,0.43396544,-0.028240902,-0.5689869,-0.31918183,-0.2801324,839.707,815.12823,807.47253,827.619,772.4176,0.33050537109375,0.1234130859375,0.94158935546875,1.682281494140625,-4.299163818359375,-1.24114990234375,1,1.0,1.0,1.0,1.0,25.00
2024-03-13 11:07:27.484,,,,,,,,,,,,,,,,,,,,,,,,,,,,,,,,,,,,,,/muse/elements/blink
2024-03-13 11:07:27.807,,,,,,,,,,,,,,,,,,,,,,,,,,,,,,,,,,,,,,/muse/elements/blink
2024-03-13 11:07:27.827,1.142174,0.2910383,0.5847663,0.9041156,1.1539601,0.15260552,0.25013253,0.94697046,1.0237162,-0.041273057,0.24033733,0.714943,0.46475726,-0.05102475,-0.005431631,0.405656,-0.1275534,-0.3819894,-0.31152073,-0.22187681,755.89746,844.1392,839.304,790.54944,696.26373,0.3240966796875,0.13616943359375,0.9368896484375,1.622467041015625,-3.33465576171875,-0.9869384765625,1,1.0,1.0,1.0,1.0,25.00
2024-03-13 11:07:27.988,,,,,,,,,,,,,,,,,,,,,,,,,,,,,,,,,,,,,,/muse/elements/blink
2024-03-13 11:07:28.830,0.8261745,0.8943758,0.7267277,0.6964238,0.83188677,0.7787085,0.8268486,0.23030262,0.67060095,0.6778452,0.95554715,0.40247065,0.43932247,1.1318241,0.783287,0.40059716,-0.29579082,0.53032154,-0.24229634,-0.1454775,838.9011,806.26373,821.1722,820.3663,751.8681,0.32159423828125,0.13494873046875,0.93701171875,1.697235107421875,-4.02252197265625,-1.772003173828125,1,1.0,1.0,1.0,1.0,25.00
2024-03-13 11:07:29.842,1.3119725,0.80192226,0.7875259,0.6964238,0.64554805,0.4258496,0.6962159,0.23030262,0.8344573,0.9104141,0.96785986,0.40247065,0.84891576,1.2569621,0.59799844,0.40059716,0.621712,0.38763997,-0.17668484,-0.1454775,801.02563,825.2015,788.93774,840.9158,885.64105,0.33251953125,0.1240234375,0.9453125,1.532745361328125,-4.822540283203125,-1.757049560546875,1,1.0,1.0,1.0,1.0,25.00
2024-03-13 11:07:30.848,0.80573386,0.711016,0.7985441,0.9678754,0.51762486,1.2110264,0.3055115,0.87155944,0.91988045,1.7012869,0.29132226,0.96703935,0.6092982,1.1575813,0.09928608,0.810851,0.29471314,0.18766849,-0.21488455,0.48567486,812.71063,811.0989,810.696,821.978,657.1795,0.32122802734375,0.13067626953125,0.94189453125,1.27105712890625,-3.955230712890625,-1.1663818359375,1,1.0,1.0,1.0,1.0,25.00
2024-03-13 11:07:31.875,1.019976,0.329326,0.6979525,1.2314001,0.6108914,1.2183641,0.45518902,0.89306104,1.0140308,1.6471618,0.49607456,1.1671956,0.8206052,0.5642598,0.2804715,0.9713608,0.39983466,-0.071261376,-0.014691156,0.5755588,779.67035,800.2198,807.0696,757.50916,695.4579,0.32537841796875,0.12335205078125,0.9515380859375,1.233673095703125,-4.942169189453125,-0.55328369140625,1,1.0,1.0,1.0,1.0,25.00
2024-03-13 11:07:32.163,,,,,,,,,,,,,,,,,,,,,,,,,,,,,,,,,,,,,,/muse/elements/blink
2024-03-13 11:07:32.899,1.2929882,0.94957644,0.70113236,1.3808348,0.92156345,1.219765,0.79967844,0.9335159,1.0067136,0.4107361,0.89365363,1.1180999,1.0654343,0.20266943,0.38946465,1.1403818,0.29507357,-0.31024083,0.24127053,0.387102,855.42126,814.3223,813.1135,816.7399,732.9304,0.327392578125,0.13226318359375,0.9454345703125,2.100982666015625,-4.11224365234375,-0.351409912109375,1,1.0,1.0,1.0,1.0,25.00
2024-03-13 11:07:33.383,,,,,,,,,,,,,,,,,,,,,,,,,,,,,,,,,,,,,,/muse/elements/blink
2024-03-13 11:07:33.631,,,,,,,,,,,,,,,,,,,,,,,,,,,,,,,,,,,,,,/muse/elements/blink
2024-03-13 11:07:33.910,1.3044792,1.0984136,0.7952483,1.3808348,0.9322293,1.2619749,0.87178135,0.9335159,0.9833033,0.50291055,0.8908385,1.1180999,1.0717311,0.14831494,0.4353991,1.1403818,0.2563436,-0.32225317,0.33356726,0.387102,767.98535,764.7619,880.40295,665.2381,790.14655,0.32391357421875,0.13848876953125,0.93389892578125,1.00189208984375,-3.69354248046875,-1.607513427734375,1,1.0,1.0,1.0,1.0,25.00
2024-03-13 11:07:34.926,1.3389864,0.3195164,0.7952483,1.3808348,1.443395,0.018092498,0.87178135,0.9335159,1.531813,0.43094823,0.8908385,1.1180999,1.3969003,0.18716952,0.4353991,1.1403818,0.7949899,-0.066672154,0.33356726,0.387102,864.68866,796.1905,784.10254,870.7326,672.8938,0.3260498046875,0.13323974609375,0.9356689453125,0.94207763671875,-3.401947021484375,-0.299072265625,1,1.0,1.0,1.0,1.0,20.00
2024-03-13 11:07:35.004,,,,,,,,,,,,,,,,,,,,,,,,,,,,,,,,,,,,,,/muse/elements/blink
2024-03-13 11:07:35.933,1.2400571,0.8005714,0.7952483,1.3808348,1.2694142,0.50519973,0.87178135,0.9335159,1.4124123,0.41969895,0.8908385,1.1180999,1.4607894,0.30970103,0.4353991,1.1403818,0.86616457,-0.085487925,0.33356726,0.387102,795.78754,807.8755,809.89014,823.5897,770.40295,0.325439453125,0.13134765625,0.94000244140625,1.36077880859375,-3.910369873046875,-1.039276123046875,1,1.0,1.0,1.0,1.0,20.00
2024-03-13 11:07:36.913,,,,,,,,,,,,,,,,,,,,,,,,,,,,,,,,,,,,,,/muse/elements/blink
2024-03-13 11:07:36.937,0.79153234,0.08823003,0.38521647,1.3808348,0.47867447,0.215588,0.3277102,0.9335159,0.60342413,0.44836205,0.24779198,1.1180999,0.4972012,0.1862267,0.18036279,1.1403818,-0.023797145,-0.4622101,-0.27244326,0.387102,684.17584,832.0513,865.89746,699.4872,715.2015,0.32830810546875,0.12994384765625,0.93927001953125,1.77947998046875,-3.775787353515625,-1.173858642578125,1,1.0,1.0,1.0,1.0,20.00
2024-03-13 11:07:37.116,,,,,,,,,,,,,,,,,,,,,,,,,,,,,,,,,,,,,,/muse/elements/blink
2024-03-13 11:07:37.725,,,,,,,,,,,,,,,,,,,,,,,,,,,,,,,,,,,,,,/muse/elements/blink
2024-03-13 11:07:37.949,0.71912485,1.0806943,1.3651831,1.3808348,0.37614262,0.978707,1.36196,0.9335159,0.5853099,0.6611362,1.0296929,1.1180999,0.4229808,0.08663553,0.16120265,1.1403818,-0.045015223,-0.3732129,-0.21061476,0.387102,852.1978,817.1429,793.36993,843.3333,668.46155,0.32183837890625,0.1317138671875,0.9329833984375,1.92901611328125,-4.5159912109375,-0.844879150390625,1,1.0,1.0,1.0,1.0,20.00
2024-03-13 11:07:38.968,0.71912485,1.1694227,0.65627205,1.3808348,0.37614262,0.911935,0.23227072,0.9335159,0.5853099,0.6429327,0.52106005,1.1180999,0.4229808,0.38589928,0.5573295,1.1403818,-0.045015223,-0.15805362,0.38292095,0.387102,796.99634,806.26373,801.4286,817.5458,839.304,0.3265380859375,0.133056640625,0.937255859375,0.964508056640625,-3.170166015625,-1.2261962890625,1,1.0,1.0,1.0,1.0,20.00
2024-03-13 11:07:39.742,,,,,,,,,,,,,,,,,,,,,,,,,,,,,,,,,,,,,,/muse/elements/blink
2024-03-13 11:07:39.984,0.71912485,0.6590022,0.49639085,1.2610654,0.37614262,0.48073572,0.13077104,1.0344356,0.5853099,0.34206173,0.52903366,0.96485585,0.4229808,0.28275958,0.31830463,0.7974642,-0.045015223,-0.21935317,0.10801785,0.33044448,902.5641,798.60803,774.43225,875.16486,748.24176,0.33026123046875,0.1300048828125,0.93719482421875,1.45050048828125,-3.81317138671875,-1.263580322265625,1,1.0,1.0,1.0,1.0,20.00
2024-03-13 11:07:40.070,,,,,,,,,,,,,,,,,,,,,,,,,,,,,,,,,,,,,,/muse/elements/blink
2024-03-13 11:07:40.362,,,,,,,,,,,,,,,,,,,,,,,,,,,,,,,,,,,,,,/muse/elements/blink
2024-03-13 11:07:40.704,,,,,,,,,,,,,,,,,,,,,,,,,,,,,,,,,,,,,,/muse/elements/blink
2024-03-13 11:07:40.948,,,,,,,,,,,,,,,,,,,,,,,,,,,,,,,,,,,,,,/muse/elements/blink
2024-03-13 11:07:41.003,0.71912485,1.5107843,0.45807534,1.2912408,0.37614262,1.074516,0.035214115,1.093626,0.5853099,0.43394434,0.14957957,0.91759425,0.4229808,0.18616156,0.05162182,0.53422743,-0.045015223,-0.32101637,-0.25304386,0.009399741,866.30035,801.02563,784.10254,877.1795,690.6227,0.32269287109375,0.1370849609375,0.94097900390625,2.011260986328125,-3.3795166015625,-1.7645263671875,1,1.0,1.0,1.0,1.0,20.00
2024-03-13 11:07:42.012,0.71912485,1.5310806,0.45807534,1.2912408,0.37614262,0.94016784,0.035214115,1.093626,0.5853099,0.4613348,0.14957957,0.91759425,0.4229808,0.27850726,0.05162182,0.53422743,-0.045015223,0.039589,-0.25304386,0.009399741,846.1539,819.5604,816.337,826.0073,713.9927,0.328125,0.1390380859375,0.93994140625,1.2261962890625,-3.671112060546875,-1.338348388671875,1,1.0,1.0,1.0,1.0,20.00
2024-03-13 11:07:42.177,,,,,,,,,,,,,,,,,,,,,,,,,,,,,,,,,,,,,,/muse/elements/jaw_clench
2024-03-13 11:07:42.417,,,,,,,,,,,,,,,,,,,,,,,,,,,,,,,,,,,,,,/muse/elements/blink
2024-03-13 11:07:43.043,1.3005043,0.7679656,0.45807534,1.2912408,1.1275436,0.45748168,0.035214115,1.093626,1.2873247,0.6926019,0.14957957,0.91759425,1.6282678,0.45194218,0.05162182,0.53422743,1.1183631,0.14924668,-0.25304386,0.009399741,831.6484,813.91943,797.8022,819.5604,660.0,0.3287353515625,0.134765625,0.94403076171875,1.323394775390625,-3.887939453125,-1.15142822265625,1,1.0,1.0,1.0,1.0,20.00
2024-03-13 11:07:43.217,,,,,,,,,,,,,,,,,,,,,,,,,,,,,,,,,,,,,,/muse/elements/jaw_clench
2024-03-13 11:07:44.047,1.2026675,0.33117074,-0.058085907,1.2912408,1.1682858,0.21480562,0.11408562,1.093626,1.1309177,0.64667547,0.41655704,0.91759425,1.7097903,0.36094275,0.46474096,0.53422743,1.1831508,0.008979274,0.2556603,0.009399741,842.1245,814.7253,819.15753,832.0513,687.8022,0.32244873046875,0.13348388671875,0.9404296875,1.712188720703125,-3.686065673828125,-1.24114990234375,1,1.0,1.0,1.0,1.0,20.00
2024-03-13 11:07:45.057,0.9458114,0.30475146,0.35579568,1.206177,1.0036844,-0.06094583,0.23120235,1.2526721,1.0955417,0.4295904,0.50897014,1.084727,1.031837,0.057833105,0.5157978,1.1698941,0.5854269,-0.19477184,0.12084992,0.6948396,813.5165,805.05493,811.0989,839.707,776.04395,0.32379150390625,0.12908935546875,0.9366455078125,1.457977294921875,-4.029998779296875,-1.173858642578125,1,1.0,1.0,1.0,1.0,25.00
2024-03-13 11:07:46.081,0.802525,0.16886288,0.5359375,1.1545458,0.9249762,-0.26288372,0.36779508,1.3434696,0.9976628,0.38902482,0.523808,1.1156049,0.9696312,0.15625267,0.45504415,1.1166676,0.714666,-0.13046919,0.24147137,0.93563694,834.87177,820.7692,813.91943,817.1429,752.674,0.326171875,0.1341552734375,0.9388427734375,1.712188720703125,-3.768310546875,-1.62994384765625,1,1.0,1.0,1.0,1.0,25.00
2024-03-13 11:07:46.256,,,,,,,,,,,,,,,,,,,,,,,,,,,,,,,,,,,,,,/muse/elements/blink
2024-03-13 11:07:46.789,,,,,,,,,,,,,,,,,,,,,,,,,,,,,,,,,,,,,,/muse/elements/blink
2024-03-13 11:07:47.087,0.85343456,1.0419592,0.53068715,1.1792961,0.6300144,1.1625798,0.45607492,1.3096361,1.0639888,1.0214347,0.28924426,1.0775896,0.72780013,0.30008838,0.18884516,0.91506404,0.6428594,-0.15723196,0.35395607,1.0041102,803.0403,807.8755,806.6667,823.1868,825.6044,0.32122802734375,0.13336181640625,0.93865966796875,1.398162841796875,-3.648681640625,-1.03179931640625,1,1.0,1.0,1.0,1.0,25.00
2024-03-13 11:07:47.480,,,,,,,,,,,,,,,,,,,,,,,,,,,,,,,,,,,,,,/muse/elements/blink
2024-03-13 11:07:48.119,0.85343456,1.3367492,0.529152,1.1792961,0.6300144,1.5977714,0.40996107,1.3096361,1.0639888,1.0866756,0.2836391,1.0775896,0.72780013,0.35578328,0.22104248,0.91506404,0.6428594,-0.31537512,0.32793042,1.0041102,845.34796,808.2784,806.26373,846.1539,914.65204,0.321533203125,0.1278076171875,0.93841552734375,0.829925537109375,-3.207550048828125,-1.308441162109375,1,1.0,1.0,1.0,1.0,25.00
2024-03-13 11:07:49.130,0.85343456,1.1004533,0.529152,1.1792961,0.6300144,1.3531171,0.40996107,1.3096361,1.0639888,0.9192905,0.2836391,1.0775896,0.72780013,0.19765806,0.22104248,0.91506404,0.6428594,-0.34855738,0.32793042,1.0041102,790.9524,815.5311,803.8461,808.2784,730.10986,0.321533203125,0.13140869140625,0.94268798828125,0.755157470703125,-3.596343994140625,-1.31591796875,1,2.0,1.0,1.0,2.0,25.00
2024-03-13 11:07:50.144,0.297154,0.3646281,0.076366454,0.4540629,0.25504082,-0.12994738,-0.09948414,0.10785763,0.75468266,0.3299549,0.011409752,0.5896465,0.44445968,0.0030329223,0.038926695,0.3240201,-0.23341978,-0.416513,-0.42446467,-0.20723617,835.2747,811.9048,812.71063,808.68134,664.83514,0.31976318359375,0.1319580078125,0.94183349609375,0.500946044921875,-3.207550048828125,-1.188812255859375,1,1.0,1.0,1.0,1.0,25.00
2024-03-13 11:07:51.150,0.5895101,0.35099185,0.23178591,0.75496596,0.67119765,0.16311748,-0.09452978,0.6760256,0.6535178,0.5429947,0.32674924,0.868679,0.5434546,0.06516419,0.107036844,0.5258387,-0.060571533,-0.36299652,-0.3067603,-0.0011657056,807.8755,820.7692,821.5751,824.7985,942.0513,0.315673828125,0.1307373046875,0.94122314453125,0.934600830078125,-3.386993408203125,-1.263580322265625,1,1.0,1.0,1.0,1.0,25.00
2024-03-13 11:07:52.159,0.49812415,0.19574939,0.5599906,0.6070314,0.65578395,0.09602849,0.27706102,0.7741826,0.49675345,0.10922728,0.374764,0.829579,0.45329544,0.016764522,0.098623686,0.5080181,-0.2252043,-0.36555204,-0.13256209,0.037777454,903.36993,794.57874,785.7143,894.5055,671.28204,0.32379150390625,0.13623046875,0.94384765625,1.308441162109375,-3.760833740234375,-2.03369140625,1,1.0,1.0,1.0,1.0,25.00
2024-03-13 11:07:52.270,,,,,,,,,,,,,,,,,,,,,,,,,,,,,,,,,,,,,,/muse/elements/blink
2024-03-13 11:07:52.551,,,,,,,,,,,,,,,,,,,,,,,,,,,,,,,,,,,,,,/muse/elements/blink
2024-03-13 11:07:52.885,,,,,,,,,,,,,,,,,,,,,,,,,,,,,,,,,,,,,,/muse/elements/blink
2024-03-13 11:07:53.178,0.019402372,1.3045844,0.5877388,0.39503178,0.28353453,0.9590305,0.50103366,0.300411,0.39189944,0.55121034,0.18287466,0.36190128,0.21647699,0.17783964,-0.010145287,0.05704755,-0.4072865,-0.3609935,-0.11967954,-0.2546205,797.8022,808.68134,814.7253,823.9927,670.87915,0.32208251953125,0.13397216796875,0.9415283203125,0.8673095703125,-3.39447021484375,-1.54022216796875,1,1.0,1.0,1.0,1.0,25.00
2024-03-13 11:07:54.193,0.019402372,1.1983876,-0.16044319,0.39503178,0.28353453,0.9854681,-0.29699984,0.300411,0.39189944,0.5882753,0.1466305,0.36190128,0.21647699,0.15157977,0.05622921,0.05704755,-0.4072865,-0.32491946,-0.15538274,-0.2546205,857.03296,830.84247,783.2967,836.8865,792.5641,0.31463623046875,0.13336181640625,0.94061279296875,2.03369140625,-3.521575927734375,-1.30096435546875,1,1.0,1.0,1.0,1.0,25.00
2024-03-13 11:07:55.203,0.8928554,0.8918803,0.56610566,1.1547519,0.83093435,0.49307048,-0.009130865,0.89416224,0.9056216,0.643805,0.18304734,0.7214737,0.3945769,0.02646088,0.09383812,0.2418177,-0.14726491,-0.5700409,-0.13567135,0.14276867,796.5934,811.0989,794.17584,802.6374,809.89014,0.31573486328125,0.13134765625,0.9437255859375,1.8841552734375,-3.865509033203125,-1.36077880859375,1,1.0,1.0,1.0,1.0,25.00
2024-03-13 11:07:56.221,1.0430634,1.272801,0.8978184,0.867385,0.8400442,0.77246875,0.48876303,0.788593,1.0818576,0.58353084,0.17036265,0.6169102,0.45442146,-0.0044592405,0.3172038,0.43095565,-0.0859878,-0.43073902,-0.18487895,0.14911674,837.28937,811.0989,821.1722,813.1135,681.3553,0.31378173828125,0.1282958984375,0.9439697265625,1.256103515625,-4.299163818359375,-1.71966552734375,1,1.0,1.0,1.0,1.0,25.00
2024-03-13 11:07:56.526,,,,,,,,,,,,,,,,,,,,,,,,,,,,,,,,,,,,,,/muse/elements/blink
2024-03-13 11:07:56.694,,,,,,,,,,,,,,,,,,,,,,,,,,,,,,,,,,,,,,/muse/elements/blink
2024-03-13 11:07:57.022,,,,,,,,,,,,,,,,,,,,,,,,,,,,,,,,,,,,,,/muse/elements/blink
2024-03-13 11:07:57.232,1.1490285,1.3804253,0.9861747,0.5801222,0.86403835,1.1284809,0.5575165,0.33029228,1.0535187,0.9338975,0.15070449,0.5640432,0.5608509,0.09538568,0.32919544,0.5404325,-0.08471122,-0.35719597,-0.2136461,0.112535916,1626.63,1627.4359,1627.033,1627.033,723.2601,0.20550537109375,0.146240234375,0.96685791015625,-0.904693603515625,21.51824951171875,-2.624359130859375,1,1.0,1.0,1.0,1.0,25.00
2024-03-13 11:07:57.655,,,,,,,,,,,,,,,,,,,,,,,,,,,,,,,,,,,,,,/muse/elements/blink
2024-03-13 11:07:57.927,,,,,,,,,,,,,,,,,,,,,,,,,,,,,,,,,,,,,,/muse/elements/blink
2024-03-13 11:07:58.242,,,,,,,,,,,,,,,,,,,,,,,,,,,,,,,,,,,,,,/muse/elements/blink
2024-03-13 11:07:58.254,1.2160598,1.4708277,1.0585093,0.6663346,0.93423694,1.4350963,0.6234766,0.22041322,1.0415726,0.89601594,9.926279E-4,0.46884054,0.606241,0.27097318,0.29946232,0.5388727,-0.037985805,-0.27780798,-0.22622576,0.095946446,766.3736,619.707,1064.9451,747.4359,744.21246,0.3870849609375,0.11602783203125,0.90814208984375,-0.157012939453125,-13.944244384765625,-2.37762451171875,1,4.0,4.0,4.0,4.0,25.00
2024-03-13 11:07:59.258,1.2160598,1.4708277,1.0585093,0.6663346,0.93423694,1.4350963,0.6234766,0.22041322,1.0415726,0.89601594,9.926279E-4,0.46884054,0.606241,0.27097318,0.29946232,0.5388727,-0.037985805,-0.27780798,-0.22622576,0.095946446,639.85345,772.01465,905.38464,640.2564,677.326,0.3836669921875,0.0916748046875,0.91485595703125,3.6187744140625,-4.42626953125,-1.457977294921875,1,4.0,4.0,4.0,4.0,25.00
2024-03-13 11:08:00.282,0.0,0.0,0.0,0.0,0.0,0.0,0.0,0.0,0.0,0.0,0.0,0.0,0.0,0.0,0.0,0.0,0.0,0.0,0.0,0.0,682.1612,741.79486,786.9231,716.4103,805.05493,0.36846923828125,0.086669921875,0.9320068359375,1.996307373046875,-4.0673828125,-0.64300537109375,0,4.0,4.0,4.0,4.0,25.00
2024-03-13 11:08:01.299,0.0,0.0,0.0,0.0,0.0,0.0,0.0,0.0,0.0,0.0,0.0,0.0,0.0,0.0,0.0,0.0,0.0,0.0,0.0,0.0,757.9121,796.5934,819.5604,772.8205,711.1722,0.36712646484375,0.0860595703125,0.93280029296875,2.026214599609375,-3.985137939453125,-0.934600830078125,1,2.0,1.0,1.0,2.0,25.00
2024-03-13 11:08:01.926,,,,,,,,,,,,,,,,,,,,,,,,,,,,,,,,,,,,,,/muse/elements/blink
2024-03-13 11:08:02.321,0.0,0.0,0.0,0.0,0.0,0.0,0.0,0.0,0.0,0.0,0.0,0.0,0.0,0.0,0.0,0.0,0.0,0.0,0.0,0.0,780.87915,796.99634,802.23444,797.3993,717.2161,0.36273193359375,0.0924072265625,0.9320068359375,1.772003173828125,-4.104766845703125,-0.478515625,1,2.0,1.0,1.0,2.0,25.00
2024-03-13 11:08:03.322,,,,,,,,,,,,,,,,,,,,,,,,,,,,,,,,,,,,,,/muse/elements/blink
2024-03-13 11:08:03.343,0.0,0.0,0.0,0.0,0.0,0.0,0.0,0.0,0.0,0.0,0.0,0.0,0.0,0.0,0.0,0.0,0.0,0.0,0.0,0.0,793.36993,774.83514,774.83514,822.7839,641.06226,0.3663330078125,0.09405517578125,0.9334716796875,1.517791748046875,-4.134674072265625,-1.375732421875,1,2.0,1.0,1.0,2.0,25.00
2024-03-13 11:08:04.353,0.0,0.7683672,0.0,0.0,0.0,0.7432543,0.0,0.0,0.0,0.25899586,0.0,0.0,0.0,0.1275885,0.0,0.0,0.0,-0.06779614,0.0,0.0,806.26373,801.4286,791.3553,792.1612,893.69965,0.3597412109375,0.08843994140625,0.9332275390625,1.368255615234375,-3.476715087890625,-1.1962890625,1,2.0,1.0,1.0,2.0,25.00
2024-03-13 11:08:04.948,,,,,,,,,,,,,,,,,,,,,,,,,,,,,,,,,,,,,,/muse/elements/blink
2024-03-13 11:08:05.278,,,,,,,,,,,,,,,,,,,,,,,,,,,,,,,,,,,,,,/muse/elements/blink
2024-03-13 11:08:05.367,0.0,0.7683672,0.0,0.0,0.0,0.7432543,0.0,0.0,0.0,0.25899586,0.0,0.0,0.0,0.1275885,0.0,0.0,0.0,-0.06779614,0.0,0.0,827.2161,782.49084,791.75824,831.2454,770.80585,0.36065673828125,0.09075927734375,0.9296875,1.256103515625,-3.566436767578125,-1.734619140625,1,2.0,1.0,1.0,2.0,25.00
2024-03-13 11:08:06.382,0.0,0.7683672,0.0,0.0,0.0,0.7432543,0.0,0.0,0.0,0.25899586,0.0,0.0,0.0,0.1275885,0.0,0.0,0.0,-0.06779614,0.0,0.0,807.47253,790.9524,808.68134,807.47253,752.27106,0.35772705078125,0.0931396484375,0.93121337890625,1.084136962890625,-3.66363525390625,-1.24114990234375,1,2.0,1.0,1.0,2.0,25.00
2024-03-13 11:08:07.391,0.6601643,0.47490513,0.13717134,0.36226764,0.67550164,0.59845144,0.19308554,-0.15268934,0.48257077,0.32016137,0.2900067,0.30883095,0.68726325,0.36408716,0.2921558,0.53405637,0.2678584,0.09065077,0.2417402,0.18755306,896.1172,799.011,794.17584,875.9707,863.47986,0.362060546875,0.09161376953125,0.9261474609375,1.435546875,-3.94775390625,-1.293487548828125,1,1.0,1.0,1.0,1.0,25.00
2024-03-13 11:08:07.404,,,,,,,,,,,,,,,,,,,,,,,,,,,,,,,,,,,,,,/muse/elements/blink
2024-03-13 11:08:08.403,0.596697,0.44784063,0.12831973,0.36226764,0.6881312,0.7057584,0.12789187,-0.15268934,0.48257077,0.18377037,0.27129188,0.30883095,0.71691585,0.34580818,0.25967944,0.53405637,0.31031314,0.11432699,0.32008463,0.18755306,790.9524,790.9524,807.47253,817.5458,774.43225,0.3603515625,0.09332275390625,0.9345703125,1.6748046875,-3.4991455078125,-1.27105712890625,1,1.0,1.0,1.0,1.0,25.00
2024-03-13 11:08:09.412,,,,,,,,,,,,,,,,,,,,,,,,,,,,,,,,,,,,,,/muse/elements/blink
2024-03-13 11:08:09.415,0.596697,0.44784063,0.12831973,0.36226764,0.6881312,0.7057584,0.12789187,-0.15268934,0.48257077,0.18377037,0.27129188,0.30883095,0.71691585,0.34580818,0.25967944,0.53405637,0.31031314,0.11432699,0.32008463,0.18755306,925.5311,844.1392,851.79486,907.3993,738.97437,0.36199951171875,0.09674072265625,0.93133544921875,1.6448974609375,-4.269256591796875,-0.814971923828125,1,1.0,1.0,1.0,1.0,25.00
2024-03-13 11:08:10.431,0.596697,0.44784063,0.12831973,0.36226764,0.6881312,0.7057584,0.12789187,-0.15268934,0.48257077,0.18377037,0.27129188,0.30883095,0.71691585,0.34580818,0.25967944,0.53405637,0.31031314,0.11432699,0.32008463,0.18755306,778.0586,800.6227,786.9231,799.011,827.2161,0.3648681640625,0.09564208984375,0.93194580078125,1.71966552734375,-3.940277099609375,-1.024322509765625,1,2.0,1.0,1.0,2.0,25.00
2024-03-13 11:08:11.254,,,,,,,,,,,,,,,,,,,,,,,,,,,,,,,,,,,,,,/muse/elements/blink
2024-03-13 11:08:11.446,0.7969203,0.9187619,0.9944968,1.200095,0.54873073,0.5902042,0.6045057,0.65936834,0.47233972,0.6137589,0.20643142,0.55516326,0.53008443,0.10696787,0.19509014,0.25301418,0.21156518,0.039312817,-0.09788102,0.31200397,836.4835,815.12823,807.0696,817.1429,664.43225,0.356689453125,0.09552001953125,0.93231201171875,1.487884521484375,-3.626251220703125,-1.248626708984375,1,1.0,1.0,1.0,1.0,25.00
2024-03-13 11:08:12.453,0.7969203,0.9187619,0.9944968,1.200095,0.54873073,0.5902042,0.6045057,0.65936834,0.47233972,0.6137589,0.20643142,0.55516326,0.53008443,0.10696787,0.19509014,0.25301418,0.21156518,0.039312817,-0.09788102,0.31200397,717.2161,843.3333,853.00366,745.42126,741.39197,0.3612060546875,0.09405517578125,0.927978515625,1.854248046875,-4.02252197265625,-1.128997802734375,1,1.0,1.0,1.0,1.0,25.00
2024-03-13 11:08:12.691,,,,,,,,,,,,,,,,,,,,,,,,,,,,,,,,,,,,,,/muse/elements/blink
2024-03-13 11:08:12.898,,,,,,,,,,,,,,,,,,,,,,,,,,,,,,,,,,,,,,/muse/elements/blink
2024-03-13 11:08:13.460,0.7969203,1.3027967,0.9944968,1.200095,0.54873073,1.1813978,0.6045057,0.65936834,0.47233972,1.0550402,0.20643142,0.55516326,0.53008443,0.37934116,0.19509014,0.25301418,0.21156518,0.09848016,-0.09788102,0.31200397,888.46155,797.3993,797.3993,878.7912,766.77655,0.35235595703125,0.09320068359375,0.932861328125,1.55517578125,-3.940277099609375,-1.51031494140625,1,1.0,1.0,1.0,1.0,25.00
2024-03-13 11:08:13.582,,,,,,,,,,,,,,,,,,,,,,,,,,,,,,,,,,,,,,/muse/elements/blink
2024-03-13 11:08:13.813,,,,,,,,,,,,,,,,,,,,,,,,,,,,,,,,,,,,,,/muse/elements/blink
2024-03-13 11:08:14.002,,,,,,,,,,,,,,,,,,,,,,,,,,,,,,,,,,,,,,/muse/elements/blink
2024-03-13 11:08:14.476,0.7969203,1.4970274,0.9944968,1.200095,0.54873073,1.6375384,0.6045057,0.65936834,0.47233972,1.1559455,0.20643142,0.55516326,0.53008443,0.45260102,0.19509014,0.25301418,0.21156518,0.2642706,-0.09788102,0.31200397,873.1502,840.5128,847.76556,871.13556,792.5641,0.34832763671875,0.09124755859375,0.9384765625,0.291595458984375,-2.332763671875,-0.97198486328125,1,2.0,1.0,1.0,2.0,25.00
2024-03-13 11:08:14.604,,,,,,,,,,,,,,,,,,,,,,,,,,,,,,,,,,,,,,/muse/elements/blink
2024-03-13 11:08:14.917,,,,,,,,,,,,,,,,,,,,,,,,,,,,,,,,,,,,,,/muse/elements/blink
2024-03-13 11:08:15.497,0.7969203,1.4699602,0.9944968,1.200095,0.54873073,1.7575047,0.6045057,0.65936834,0.47233972,1.1545229,0.20643142,0.55516326,0.53008443,0.5170778,0.19509014,0.25301418,0.21156518,0.35650563,-0.09788102,0.31200397,830.4396,783.2967,776.04395,778.86444,644.2857,0.3516845703125,0.08404541015625,0.9390869140625,2.729034423828125,-4.643096923828125,-3.03558349609375,1,2.0,1.0,1.0,2.0,25.00
2024-03-13 11:08:15.834,,,,,,,,,,,,,,,,,,,,,,,,,,,,,,,,,,,,,,/muse/elements/blink
2024-03-13 11:08:16.513,0.7969203,1.4699602,0.9944968,1.200095,0.54873073,1.7575047,0.6045057,0.65936834,0.47233972,1.1545229,0.20643142,0.55516326,0.53008443,0.5170778,0.19509014,0.25301418,0.21156518,0.35650563,-0.09788102,0.31200397,826.4103,833.2601,828.8278,847.3626,604.7985,0.3424072265625,0.080078125,0.93536376953125,1.80938720703125,-3.955230712890625,-1.12152099609375,1,2.0,1.0,1.0,2.0,25.00
2024-03-13 11:08:17.170,,,,,,,,,,,,,,,,,,,,,,,,,,,,,,,,,,,,,,/muse/elements/blink
2024-03-13 11:08:17.523,0.7969203,1.4699602,0.9944968,1.200095,0.54873073,1.7575047,0.6045057,0.65936834,0.47233972,1.1545229,0.20643142,0.55516326,0.53008443,0.5170778,0.19509014,0.25301418,0.21156518,0.35650563,-0.09788102,0.31200397,750.2564,857.8388,877.1795,729.304,718.4249,0.35479736328125,0.08392333984375,0.9365234375,1.614990234375,-3.416900634765625,-0.740203857421875,1,2.0,1.0,1.0,2.0,25.00
2024-03-13 11:08:17.766,,,,,,,,,,,,,,,,,,,,,,,,,,,,,,,,,,,,,,/muse/elements/blink
2024-03-13 11:08:18.537,0.7969203,1.4699602,0.9944968,1.200095,0.54873073,1.7575047,0.6045057,0.65936834,0.47233972,1.1545229,0.20643142,0.55516326,0.53008443,0.5170778,0.19509014,0.25301418,0.21156518,0.35650563,-0.09788102,0.31200397,827.2161,787.326,802.6374,826.4103,719.2308,0.35113525390625,0.08599853515625,0.93548583984375,1.8841552734375,-3.656158447265625,-0.95703125,1,2.0,1.0,1.0,2.0,25.00
2024-03-13 11:08:19.294,,,,,,,,,,,,,,,,,,,,,,,,,,,,,,,,,,,,,,/muse/elements/blink
2024-03-13 11:08:19.544,0.7969203,1.4699602,0.9944968,1.200095,0.54873073,1.7575047,0.6045057,0.65936834,0.47233972,1.1545229,0.20643142,0.55516326,0.53008443,0.5170778,0.19509014,0.25301418,0.21156518,0.35650563,-0.09788102,0.31200397,878.3883,778.86444,775.64105,857.8388,749.0476,0.3553466796875,0.08441162109375,0.9337158203125,1.5252685546875,-4.329071044921875,-1.233673095703125,1,2.0,1.0,1.0,2.0,25.00
2024-03-13 11:08:19.573,,,,,,,,,,,,,,,,,,,,,,,,,,,,,,,,,,,,,,/muse/elements/blink
2024-03-13 11:08:20.559,0.7969203,1.4699602,0.9944968,1.200095,0.54873073,1.7575047,0.6045057,0.65936834,0.47233972,1.1545229,0.20643142,0.55516326,0.53008443,0.5170778,0.19509014,0.25301418,0.21156518,0.35650563,-0.09788102,0.31200397,846.55676,811.50183,807.0696,821.1722,694.2491,0.35601806640625,0.0877685546875,0.93988037109375,2.071075439453125,-4.306640625,-0.037384033203125,1,2.0,1.0,1.0,2.0,25.00
2024-03-13 11:08:20.912,,,,,,,,,,,,,,,,,,,,,,,,,,,,,,,,,,,,,,/muse/elements/blink
2024-03-13 11:08:21.229,,,,,,,,,,,,,,,,,,,,,,,,,,,,,,,,,,,,,,/muse/elements/jaw_clench
2024-03-13 11:08:21.427,,,,,,,,,,,,,,,,,,,,,,,,,,,,,,,,,,,,,,/muse/elements/jaw_clench
2024-03-13 11:08:21.571,0.7969203,1.4699602,0.9944968,1.200095,0.54873073,1.7575047,0.6045057,0.65936834,0.47233972,1.1545229,0.20643142,0.55516326,0.53008443,0.5170778,0.19509014,0.25301418,0.21156518,0.35650563,-0.09788102,0.31200397,728.49817,737.76556,732.9304,741.39197,670.4762,0.353515625,0.0908203125,0.936767578125,2.37762451171875,-3.611297607421875,-1.084136962890625,1,2.0,4.0,4.0,2.0,25.00
2024-03-13 11:08:22.580,0.7969203,1.4699602,0.9944968,1.200095,0.54873073,1.7575047,0.6045057,0.65936834,0.47233972,1.1545229,0.20643142,0.55516326,0.53008443,0.5170778,0.19509014,0.25301418,0.21156518,0.35650563,-0.09788102,0.31200397,762.3443,819.9634,821.1722,767.5824,823.1868,0.3516845703125,0.0948486328125,0.93670654296875,1.981353759765625,-3.686065673828125,-0.5682373046875,1,2.0,1.0,1.0,2.0,25.00
2024-03-13 11:08:22.736,,,,,,,,,,,,,,,,,,,,,,,,,,,,,,,,,,,,,,/muse/elements/blink
2024-03-13 11:08:23.405,,,,,,,,,,,,,,,,,,,,,,,,,,,,,,,,,,,,,,/muse/elements/blink
2024-03-13 11:08:23.588,0.7969203,1.4699602,0.9944968,1.200095,0.54873073,1.7575047,0.6045057,0.65936834,0.47233972,1.1545229,0.20643142,0.55516326,0.53008443,0.5170778,0.19509014,0.25301418,0.21156518,0.35650563,-0.09788102,0.31200397,730.10986,749.0476,772.4176,965.82416,776.4469,0.34521484375,0.1025390625,0.93365478515625,0.25421142578125,-3.775787353515625,-1.375732421875,1,2.0,1.0,1.0,2.0,25.00
2024-03-13 11:08:24.592,0.7969203,1.4699602,0.9944968,1.200095,0.54873073,1.7575047,0.6045057,0.65936834,0.47233972,1.1545229,0.20643142,0.55516326,0.53008443,0.5170778,0.19509014,0.25301418,0.21156518,0.35650563,-0.09788102,0.31200397,788.93774,778.46155,789.7436,1180.586,732.9304,0.3577880859375,0.10302734375,0.9368896484375,2.61688232421875,-3.5589599609375,-0.37384033203125,1,2.0,1.0,1.0,4.0,25.00
2024-03-13 11:08:25.601,0.7969203,0.8739432,0.9944968,1.200095,0.54873073,0.21705829,0.6045057,0.65936834,0.47233972,0.47263974,0.20643142,0.55516326,0.53008443,0.3960834,0.19509014,0.25301418,0.21156518,-0.014486951,-0.09788102,0.31200397,798.20514,805.8608,812.71063,857.4359,811.9048,0.35601806640625,0.10443115234375,0.9351806640625,1.5252685546875,-3.7384033203125,-1.472930908203125,1,2.0,1.0,1.0,2.0,25.00
2024-03-13 11:08:26.010,,,,,,,,,,,,,,,,,,,,,,,,,,,,,,,,,,,,,,/muse/elements/blink
2024-03-13 11:08:26.363,,,,,,,,,,,,,,,,,,,,,,,,,,,,,,,,,,,,,,/muse/elements/blink
2024-03-13 11:08:26.615,0.7969203,0.7775587,0.2709352,1.200095,0.54873073,0.28261495,-0.067256376,0.65936834,0.47233972,0.6173147,0.084014244,0.55516326,0.53008443,0.3219133,0.2848006,0.25301418,0.21156518,-0.009657548,-0.2685461,0.31200397,1626.63,836.8865,834.87177,1627.033,802.23444,0.3223876953125,0.19866943359375,0.9200439453125,7.888031005859375,-8.23944091796875,-6.3104248046875,1,2.0,1.0,1.0,2.0,25.00
2024-03-13 11:08:27.245,,,,,,,,,,,,,,,,,,,,,,,,,,,,,,,,,,,,,,/muse/elements/blink
2024-03-13 11:08:27.592,,,,,,,,,,,,,,,,,,,,,,,,,,,,,,,,,,,,,,/muse/elements/blink
2024-03-13 11:08:27.628,0.7969203,0.4215134,0.2709352,1.200095,0.54873073,0.32470942,-0.067256376,0.65936834,0.47233972,0.4585048,0.084014244,0.55516326,0.53008443,0.12602922,0.2848006,0.25301418,0.21156518,0.0017100967,-0.2685461,0.31200397,543.95605,651.53845,751.8681,562.0879,1112.4908,0.35614013671875,0.091064453125,0.9342041015625,0.605621337890625,-3.925323486328125,-0.844879150390625,1,2.0,4.0,4.0,2.0,25.00
2024-03-13 11:08:28.124,,,,,,,,,,,,,,,,,,,,,,,,,,,,,,,,,,,,,,/muse/elements/blink
2024-03-13 11:08:28.633,0.7969203,0.4215134,0.2709352,1.200095,0.54873073,0.32470942,-0.067256376,0.65936834,0.47233972,0.4585048,0.084014244,0.55516326,0.53008443,0.12602922,0.2848006,0.25301418,0.21156518,0.0017100967,-0.2685461,0.31200397,797.8022,757.1062,751.4652,775.64105,792.96704,0.3570556640625,0.11187744140625,0.93408203125,2.46734619140625,-4.5159912109375,-1.15142822265625,1,2.0,1.0,4.0,2.0,25.00
2024-03-13 11:08:29.167,,,,,,,,,,,,,,,,,,,,,,,,,,,,,,,,,,,,,,/muse/elements/blink
2024-03-13 11:08:29.646,0.7969203,0.4215134,0.2709352,1.200095,0.54873073,0.32470942,-0.067256376,0.65936834,0.47233972,0.4585048,0.084014244,0.55516326,0.53008443,0.12602922,0.2848006,0.25301418,0.21156518,0.0017100967,-0.2685461,0.31200397,869.92676,746.2271,1037.9487,868.315,684.9817,0.350341796875,0.10540771484375,0.93927001953125,3.222503662109375,-3.03558349609375,-1.30096435546875,1,2.0,1.0,2.0,2.0,25.00
2024-03-13 11:08:30.657,0.7969203,0.4215134,0.2709352,1.200095,0.54873073,0.32470942,-0.067256376,0.65936834,0.47233972,0.4585048,0.084014244,0.55516326,0.53008443,0.12602922,0.2848006,0.25301418,0.21156518,0.0017100967,-0.2685461,0.31200397,884.0293,793.36993,823.5897,822.7839,758.315,0.30035400390625,0.1256103515625,0.9439697265625,5.988922119140625,-3.072967529296875,1.42059326171875,1,2.0,1.0,1.0,2.0,25.00
2024-03-13 11:08:31.672,0.7969203,0.58271325,0.2709352,1.200095,0.54873073,0.40252286,-0.067256376,0.65936834,0.47233972,0.57782197,0.084014244,0.55516326,0.53008443,0.23414499,0.2848006,0.25301418,0.21156518,-0.06746007,-0.2685461,0.31200397,889.67035,823.1868,823.5897,744.61536,794.9817,0.359375,0.08612060546875,0.8922119140625,10.624542236328125,-7.29736328125,0.59814453125,1,2.0,1.0,1.0,2.0,25.00
2024-03-13 11:08:32.098,,,,,,,,,,,,,,,,,,,,,,,,,,,,,,,,,,,,,,/muse/elements/jaw_clench
2024-03-13 11:08:32.677,0.7969203,0.6189275,0.2709352,1.200095,0.54873073,0.37554303,-0.067256376,0.65936834,0.47233972,0.59601325,0.084014244,0.55516326,0.53008443,0.23856185,0.2848006,0.25301418,0.21156518,-0.09727409,-0.2685461,0.31200397,869.12085,785.7143,790.54944,748.6447,634.21246,0.33941650390625,0.1136474609375,0.92724609375,3.686065673828125,-5.90667724609375,-4.20196533203125,1,2.0,1.0,1.0,2.0,25.00
2024-03-13 11:08:33.089,,,,,,,,,,,,,,,,,,,,,,,,,,,,,,,,,,,,,,/muse/elements/blink
2024-03-13 11:08:33.198,,,,,,,,,,,,,,,,,,,,,,,,,,,,,,,,,,,,,,/muse/elements/jaw_clench
2024-03-13 11:08:33.684,0.7969203,0.71692413,0.2709352,1.200095,0.54873073,0.20844117,-0.067256376,0.65936834,0.47233972,0.53574,0.084014244,0.55516326,0.53008443,0.2637837,0.2848006,0.25301418,0.21156518,-0.15443382,-0.2685461,0.31200397,792.5641,794.57874,820.7692,751.8681,863.0769,0.37591552734375,0.12176513671875,0.90771484375,2.46734619140625,-3.551483154296875,-1.831817626953125,1,2.0,1.0,1.0,2.0,25.00
2024-03-13 11:08:34.700,0.7969203,0.71692413,0.2709352,1.200095,0.54873073,0.20844117,-0.067256376,0.65936834,0.47233972,0.53574,0.084014244,0.55516326,0.53008443,0.2637837,0.2848006,0.25301418,0.21156518,-0.15443382,-0.2685461,0.31200397,792.5641,856.63007,818.3516,658.3883,794.17584,0.34246826171875,0.121337890625,0.9210205078125,-0.710296630859375,-3.03558349609375,0.25421142578125,1,2.0,1.0,1.0,2.0,25.00
2024-03-13 11:08:34.747,,,,,,,,,,,,,,,,,,,,,,,,,,,,,,,,,,,,,,/muse/elements/blink
2024-03-13 11:08:34.921,,,,,,,,,,,,,,,,,,,,,,,,,,,,,,,,,,,,,,/muse/elements/blink
2024-03-13 11:08:35.241,,,,,,,,,,,,,,,,,,,,,,,,,,,,,,,,,,,,,,/muse/elements/jaw_clench
2024-03-13 11:08:35.713,0.7969203,0.71692413,0.2709352,1.200095,0.54873073,0.20844117,-0.067256376,0.65936834,0.47233972,0.53574,0.084014244,0.55516326,0.53008443,0.2637837,0.2848006,0.25301418,0.21156518,-0.15443382,-0.2685461,0.31200397,813.1135,806.6667,797.8022,767.1795,734.94507,0.3428955078125,0.12603759765625,0.93450927734375,1.981353759765625,-3.0206298828125,-1.128997802734375,1,2.0,1.0,1.0,2.0,25.00
2024-03-13 11:08:36.718,0.7969203,0.26566875,0.16225119,1.200095,0.54873073,0.62624806,-0.14443578,0.65936834,0.47233972,0.61298674,0.14667748,0.55516326,0.53008443,0.45595452,0.28204805,0.25301418,0.21156518,0.23024763,-0.047281962,0.31200397,803.0403,800.6227,800.6227,823.1868,795.38464,0.3388671875,0.1290283203125,0.93975830078125,0.814971923828125,-3.043060302734375,-2.250518798828125,1,2.0,1.0,1.0,2.0,25.00
2024-03-13 11:08:36.735,,,,,,,,,,,,,,,,,,,,,,,,,,,,,,,,,,,,,,/muse/elements/jaw_clench
2024-03-13 11:08:37.071,,,,,,,,,,,,,,,,,,,,,,,,,,,,,,,,,,,,,,/muse/elements/jaw_clench
2024-03-13 11:08:37.724,0.7969203,0.68055683,0.48937106,0.3214807,0.54873073,0.56125325,-0.08334833,0.3416489,0.47233972,0.9618559,0.50945586,0.46000215,0.53008443,0.39133352,0.293918,1.2475115,0.21156518,0.18707044,-0.020954892,1.586132,862.674,773.22345,753.47986,798.20514,724.87177,0.339111328125,0.1280517578125,0.9404296875,2.01873779296875,-4.23187255859375,-0.500946044921875,1,1.0,1.0,1.0,1.0,25.00
2024-03-13 11:08:37.752,,,,,,,,,,,,,,,,,,,,,,,,,,,,,,,,,,,,,,/muse/elements/blink
2024-03-13 11:08:38.734,0.7969203,0.8585747,0.8735274,0.37851915,0.54873073,0.55828106,0.10635853,0.34310105,0.47233972,0.8357774,0.3790114,0.39703044,0.53008443,0.35167426,0.26249492,1.2576319,0.21156518,0.15131049,-0.076807685,1.584666,759.92676,823.5897,796.99634,731.31866,727.6923,0.32977294921875,0.13323974609375,0.94390869140625,1.495361328125,-3.33465576171875,-0.8673095703125,1,1.0,1.0,1.0,1.0,25.00
2024-03-13 11:08:38.904,,,,,,,,,,,,,,,,,,,,,,,,,,,,,,,,,,,,,,/muse/elements/blink
2024-03-13 11:08:39.746,0.7969203,0.8585747,0.8735274,0.37851915,0.54873073,0.55828106,0.10635853,0.34310105,0.47233972,0.8357774,0.3790114,0.39703044,0.53008443,0.35167426,0.26249492,1.2576319,0.21156518,0.15131049,-0.076807685,1.584666,814.3223,803.0403,801.4286,808.2784,622.52747,0.33453369140625,0.1270751953125,0.93548583984375,1.48040771484375,-4.5758056640625,-0.560760498046875,1,1.0,1.0,1.0,1.0,25.00
2024-03-13 11:08:40.123,,,,,,,,,,,,,,,,,,,,,,,,,,,,,,,,,,,,,,/muse/elements/blink
2024-03-13 11:08:40.289,,,,,,,,,,,,,,,,,,,,,,,,,,,,,,,,,,,,,,/muse/elements/blink
2024-03-13 11:08:40.491,,,,,,,,,,,,,,,,,,,,,,,,,,,,,,,,,,,,,,/muse/elements/blink
2024-03-13 11:08:40.759,0.7969203,1.2445043,0.8735274,0.37851915,0.54873073,1.3669922,0.10635853,0.34310105,0.47233972,0.71918833,0.3790114,0.39703044,0.53008443,0.26408592,0.26249492,1.2576319,0.21156518,0.0783823,-0.076807685,1.584666,784.10254,803.8461,805.05493,832.0513,967.8388,0.3370361328125,0.11883544921875,0.94512939453125,1.517791748046875,-4.000091552734375,-1.413116455078125,1,2.0,1.0,1.0,2.0,25.00
2024-03-13 11:08:41.769,0.7969203,1.1361929,1.17995,0.37851915,0.54873073,1.2970569,1.4672556,0.34310105,0.47233972,0.73541623,1.4100814,0.39703044,0.53008443,0.26101685,0.3658495,1.2576319,0.21156518,0.026745044,-0.07006702,1.584666,748.24176,792.96704,776.8498,756.30035,699.4872,0.33660888671875,0.1136474609375,0.93798828125,0.9869384765625,-3.955230712890625,0.16448974609375,1,2.0,1.0,1.0,2.0,25.00
2024-03-13 11:08:42.449,,,,,,,,,,,,,,,,,,,,,,,,,,,,,,,,,,,,,,/muse/elements/blink
2024-03-13 11:08:42.777,0.8299386,0.89023733,0.40984812,0.37851915,0.5416913,0.53779286,0.1801919,0.34310105,0.74332035,0.46238586,0.52501214,0.39703044,1.0258696,0.37667468,0.31228086,1.2576319,1.0495143,-0.108526655,-0.30006436,1.584666,779.2674,806.26373,800.2198,769.59705,699.89014,0.34429931640625,0.11260986328125,0.94390869140625,1.532745361328125,-3.69354248046875,-1.1962890625,1,1.0,1.0,1.0,1.0,25.00
2024-03-13 11:08:43.532,,,,,,,,,,,,,,,,,,,,,,,,,,,,,,,,,,,,,,/muse/elements/blink
2024-03-13 11:08:43.797,0.8634199,1.1682153,0.49134266,0.37851915,0.58646005,0.74909127,0.3558698,0.34310105,0.70195806,0.6018683,0.5221127,0.39703044,1.0111035,0.27504092,0.3642981,1.2576319,1.0610435,-0.06955518,-0.31130874,1.584666,767.98535,811.9048,815.9341,812.3077,706.7399,0.341552734375,0.11480712890625,0.94512939453125,1.637420654296875,-4.0673828125,-2.100982666015625,1,1.0,1.0,1.0,1.0,25.00
2024-03-13 11:08:44.565,,,,,,,,,,,,,,,,,,,,,,,,,,,,,,,,,,,,,,/muse/elements/blink
2024-03-13 11:08:44.799,0.8634199,1.231384,0.49134266,0.37851915,0.58646005,0.75702685,0.3558698,0.34310105,0.70195806,0.80082244,0.5221127,0.39703044,1.0111035,0.34710646,0.3642981,1.2576319,1.0610435,-0.027839663,-0.31130874,1.584666,688.20514,823.5897,855.82416,711.5751,674.10254,0.3441162109375,0.11883544921875,0.93402099609375,1.861724853515625,-4.8748779296875,-1.74957275390625,1,1.0,1.0,1.0,1.0,25.00
2024-03-13 11:08:44.982,,,,,,,,,,,,,,,,,,,,,,,,,,,,,,,,,,,,,,/muse/elements/blink
2024-03-13 11:08:45.576,,,,,,,,,,,,,,,,,,,,,,,,,,,,,,,,,,,,,,/muse/elements/blink
2024-03-13 11:08:45.810,0.8634199,0.87025356,0.49134266,0.37851915,0.58646005,1.0499812,0.3558698,0.34310105,0.70195806,0.9576551,0.5221127,0.39703044,1.0111035,0.5271664,0.3642981,1.2576319,1.0610435,0.023835735,-0.31130874,1.584666,807.0696,813.1135,810.293,817.9487,731.7216,0.34954833984375,0.10272216796875,0.93359375,0.73272705078125,-3.850555419921875,-1.07666015625,1,2.0,1.0,1.0,2.0,25.00
2024-03-13 11:08:46.820,0.8634199,0.9486897,0.49134266,0.37851915,0.58646005,1.2391444,0.3558698,0.34310105,0.70195806,0.9480387,0.5221127,0.39703044,1.0111035,0.48158893,0.3642981,1.2576319,1.0610435,-0.042514727,-0.31130874,1.584666,801.8315,810.696,823.5897,791.3553,701.50183,0.33819580078125,0.1165771484375,0.9412841796875,1.74957275390625,-3.491668701171875,-1.54022216796875,1,2.0,1.0,1.0,2.0,25.00
2024-03-13 11:08:47.834,0.37348035,0.46481618,-0.1431177,0.40474024,0.7317672,0.25875738,-0.46693957,0.49567556,1.0099924,0.38793752,0.16981421,0.5381385,0.9635254,0.18546599,0.21986707,0.74542123,1.1182038,-0.056084543,0.04516295,0.9815722,800.2198,795.78754,811.0989,799.81683,759.5238,0.3367919921875,0.11419677734375,0.9366455078125,1.854248046875,-3.985137939453125,-1.00189208984375,1,1.0,1.0,1.0,1.0,25.00
2024-03-13 11:08:48.127,,,,,,,,,,,,,,,,,,,,,,,,,,,,,,,,,,,,,,/muse/elements/blink
2024-03-13 11:08:48.855,0.38580006,1.0298915,-0.60220045,0.23138033,0.354903,0.8387629,-0.39455664,0.65563834,0.8497083,0.7517632,0.062043,0.36376184,0.8854931,0.24533916,0.21691732,0.6769697,0.96304727,-0.043749463,0.058889944,0.81607455,803.44324,803.44324,811.9048,816.7399,680.9524,0.3421630859375,0.1099853515625,0.9410400390625,1.472930908203125,-3.626251220703125,-1.36077880859375,1,1.0,1.0,1.0,1.0,25.00
2024-03-13 11:08:49.863,0.4614739,0.96393746,0.5728267,0.96129274,0.4458019,0.80815744,-0.13814652,0.75140065,0.532069,0.7219652,0.11833158,0.9435206,0.9170732,0.28106654,0.20650291,1.0539839,0.7196112,-0.0016937068,0.060556833,0.8009157,821.5751,802.6374,803.8461,822.7839,768.7912,0.3341064453125,0.111328125,0.94390869140625,1.57012939453125,-4.2767333984375,-0.85235595703125,1,1.0,1.0,1.0,1.0,25.00
2024-03-13 11:08:50.665,,,,,,,,,,,,,,,,,,,,,,,,,,,,,,,,,,,,,,/muse/elements/blink
2024-03-13 11:08:50.876,0.78145957,0.6887292,0.759882,0.90666366,0.7073112,0.47184423,-0.24073617,0.6444925,0.6833772,0.46763736,0.2784552,0.9677378,0.8880917,0.39889482,0.20266514,0.89808655,0.72586155,0.009065459,0.11246757,0.92572194,852.1978,786.9231,782.8938,859.85345,799.41394,0.33831787109375,0.10601806640625,0.93798828125,1.57012939453125,-3.671112060546875,-1.12152099609375,1,1.0,1.0,1.0,1.0,25.00
2024-03-13 11:08:50.984,,,,,,,,,,,,,,,,,,,,,,,,,,,,,,,,,,,,,,/muse/elements/blink
2024-03-13 11:08:51.384,,,,,,,,,,,,,,,,,,,,,,,,,,,,,,,,,,,,,,/muse/elements/blink
2024-03-13 11:08:51.891,0.96970916,1.2236958,0.79829496,0.8416855,0.88943714,1.1309617,-0.3458577,0.5685025,0.59421265,0.7363054,0.1690705,0.7993519,0.863019,0.47125655,0.11087633,0.6224238,0.7586825,-0.1107208,0.13720056,1.0353049,844.5421,828.8278,794.9817,804.2491,685.38464,0.336669921875,0.1070556640625,0.93896484375,1.353302001953125,-4.029998779296875,-1.532745361328125,1,1.0,1.0,1.0,1.0,25.00
2024-03-13 11:08:52.389,,,,,,,,,,,,,,,,,,,,,,,,,,,,,,,,,,,,,,/muse/elements/blink
2024-03-13 11:08:52.913,0.96970916,1.2658423,0.79829496,0.8416855,0.88943714,1.1045415,-0.3458577,0.5685025,0.59421265,0.82657945,0.1690705,0.7993519,0.863019,0.46577618,0.11087633,0.6224238,0.7586825,-0.2319327,0.13720056,1.0353049,1626.63,1627.033,1627.033,1627.033,690.2198,0.20977783203125,0.14208984375,0.96856689453125,5.659942626953125,4.23187255859375,-1.039276123046875,1,1.0,1.0,1.0,1.0,25.00
2024-03-13 11:08:53.508,,,,,,,,,,,,,,,,,,,,,,,,,,,,,,,,,,,,,,/muse/elements/blink
2024-03-13 11:08:53.872,,,,,,,,,,,,,,,,,,,,,,,,,,,,,,,,,,,,,,/muse/elements/blink
2024-03-13 11:08:53.936,0.96970916,1.1704221,0.79829496,0.8416855,0.88943714,0.9473848,-0.3458577,0.5685025,0.59421265,0.7667574,0.1690705,0.7993519,0.863019,0.4360112,0.11087633,0.6224238,0.7586825,-0.2718114,0.13720056,1.0353049,1180.1831,1209.597,1370.3663,1202.3444,666.4469,0.207275390625,0.13702392578125,0.972900390625,1.443023681640625,-7.40203857421875,-5.09918212890625,1,2.0,4.0,2.0,2.0,25.00
2024-03-13 11:08:54.425,,,,,,,,,,,,,,,,,,,,,,,,,,,,,,,,,,,,,,/muse/elements/blink
2024-03-13 11:08:54.951,0.96970916,1.1704221,0.79829496,0.8416855,0.88943714,0.9473848,-0.3458577,0.5685025,0.59421265,0.7667574,0.1690705,0.7993519,0.863019,0.4360112,0.11087633,0.6224238,0.7586825,-0.2718114,0.13720056,1.0353049,963.8095,876.77655,899.34064,971.4652,748.24176,0.21453857421875,0.1304931640625,0.975341796875,0.814971923828125,-4.29168701171875,1.77947998046875,1,2.0,4.0,2.0,2.0,25.00
2024-03-13 11:08:55.962,0.96970916,1.1704221,0.79829496,0.8416855,0.88943714,0.9473848,-0.3458577,0.5685025,0.59421265,0.7667574,0.1690705,0.7993519,0.863019,0.4360112,0.11087633,0.6224238,0.7586825,-0.2718114,0.13720056,1.0353049,824.7985,853.8095,794.57874,830.84247,675.31134,0.242919921875,0.125,0.96795654296875,1.375732421875,-4.88983154296875,-1.57012939453125,1,2.0,1.0,1.0,2.0,25.00
2024-03-13 11:08:56.323,,,,,,,,,,,,,,,,,,,,,,,,,,,,,,,,,,,,,,/muse/elements/blink
2024-03-13 11:08:56.965,0.96970916,1.1704221,0.79829496,0.8416855,0.88943714,0.9473848,-0.3458577,0.5685025,0.59421265,0.7667574,0.1690705,0.7993519,0.863019,0.4360112,0.11087633,0.6224238,0.7586825,-0.2718114,0.13720056,1.0353049,895.31134,839.304,831.2454,871.13556,955.34796,0.22515869140625,0.14056396484375,0.98016357421875,1.95892333984375,0.67291259765625,-14.961090087890625,1,2.0,1.0,1.0,2.0,25.00
2024-03-13 11:08:57.275,,,,,,,,,,,,,,,,,,,,,,,,,,,,,,,,,,,,,,/muse/elements/blink
2024-03-13 11:08:57.466,,,,,,,,,,,,,,,,,,,,,,,,,,,,,,,,,,,,,,/muse/elements/blink
2024-03-13 11:08:57.972,0.96970916,1.1704221,0.79829496,0.8416855,0.88943714,0.9473848,-0.3458577,0.5685025,0.59421265,0.7667574,0.1690705,0.7993519,0.863019,0.4360112,0.11087633,0.6224238,0.7586825,-0.2718114,0.13720056,1.0353049,848.1685,799.81683,826.4103,835.6777,714.3956,0.208740234375,0.1370849609375,0.98419189453125,2.67669677734375,-3.985137939453125,-0.95703125,1,2.0,1.0,1.0,2.0,25.00
2024-03-13 11:08:58.490,,,,,,,,,,,,,,,,,,,,,,,,,,,,,,,,,,,,,,/muse/elements/blink
2024-03-13 11:08:58.980,0.96970916,1.1704221,0.79829496,0.8416855,0.88943714,0.9473848,-0.3458577,0.5685025,0.59421265,0.7667574,0.1690705,0.7993519,0.863019,0.4360112,0.11087633,0.6224238,0.7586825,-0.2718114,0.13720056,1.0353049,718.022,688.20514,623.73627,764.7619,736.1539,0.232666015625,0.12176513671875,0.97412109375,-2.908477783203125,-4.66552734375,4.538421630859375,1,2.0,1.0,1.0,2.0,25.00
2024-03-13 11:08:59.084,,,,,,,,,,,,,,,,,,,,,,,,,,,,,,,,,,,,,,/muse/elements/blink
2024-03-13 11:08:59.985,,,,,,,,,,,,,,,,,,,,,,,,,,,,,,,,,,,,,,/muse/elements/blink
2024-03-13 11:08:59.998,0.96970916,1.1704221,0.79829496,0.8416855,0.88943714,0.9473848,-0.3458577,0.5685025,0.59421265,0.7667574,0.1690705,0.7993519,0.863019,0.4360112,0.11087633,0.6224238,0.7586825,-0.2718114,0.13720056,1.0353049,854.61536,793.36993,784.90845,865.89746,847.3626,0.2479248046875,0.09075927734375,0.96990966796875,2.714080810546875,-7.633819580078125,-2.76641845703125,1,2.0,1.0,1.0,2.0,25.00
2024-03-13 11:09:00.210,,,,,,,,,,,,,,,,,,,,,,,,,,,,,,,,,,,,,,/muse/elements/jaw_clench
2024-03-13 11:09:00.319,,,,,,,,,,,,,,,,,,,,,,,,,,,,,,,,,,,,,,/muse/elements/blink
2024-03-13 11:09:00.516,,,,,,,,,,,,,,,,,,,,,,,,,,,,,,,,,,,,,,/muse/elements/blink
2024-03-13 11:09:01.006,0.96970916,1.1704221,0.79829496,0.8416855,0.88943714,0.9473848,-0.3458577,0.5685025,0.59421265,0.7667574,0.1690705,0.7993519,0.863019,0.4360112,0.11087633,0.6224238,0.7586825,-0.2718114,0.13720056,1.0353049,1626.63,1627.033,1627.033,1627.033,878.7912,0.26934814453125,0.087646484375,0.970458984375,1.0467529296875,-3.641204833984375,-1.039276123046875,1,2.0,1.0,1.0,2.0,25.00
2024-03-13 11:09:01.026,,,,,,,,,,,,,,,,,,,,,,,,,,,,,,,,,,,,,,/muse/elements/blink
2024-03-13 11:09:01.550,,,,,,,,,,,,,,,,,,,,,,,,,,,,,,,,,,,,,,/muse/elements/jaw_clench
2024-03-13 11:09:01.723,,,,,,,,,,,,,,,,,,,,,,,,,,,,,,,,,,,,,,/muse/elements/blink
2024-03-13 11:09:02.017,0.96970916,1.1704221,0.79829496,0.8416855,0.88943714,0.9473848,-0.3458577,0.5685025,0.59421265,0.7667574,0.1690705,0.7993519,0.863019,0.4360112,0.11087633,0.6224238,0.7586825,-0.2718114,0.13720056,1.0353049,1021.02563,1112.8938,1051.6483,1029.0842,653.1502,0.394775390625,0.07025146484375,0.875732421875,0.4486083984375,-9.652557373046875,-0.605621337890625,1,2.0,1.0,4.0,2.0,25.00
2024-03-13 11:09:02.334,,,,,,,,,,,,,,,,,,,,,,,,,,,,,,,,,,,,,,/muse/elements/jaw_clench
2024-03-13 11:09:02.427,,,,,,,,,,,,,,,,,,,,,,,,,,,,,,,,,,,,,,/muse/elements/blink
2024-03-13 11:09:02.566,,,,,,,,,,,,,,,,,,,,,,,,,,,,,,,,,,,,,,/muse/elements/jaw_clench
2024-03-13 11:09:02.751,,,,,,,,,,,,,,,,,,,,,,,,,,,,,,,,,,,,,,/muse/elements/blink
2024-03-13 11:09:02.861,,,,,,,,,,,,,,,,,,,,,,,,,,,,,,,,,,,,,,/muse/elements/jaw_clench
2024-03-13 11:09:02.936,,,,,,,,,,,,,,,,,,,,,,,,,,,,,,,,,,,,,,/muse/elements/blink
2024-03-13 11:09:03.029,0.96970916,1.1704221,0.79829496,0.8416855,0.88943714,0.9473848,-0.3458577,0.5685025,0.59421265,0.7667574,0.1690705,0.7993519,0.863019,0.4360112,0.11087633,0.6224238,0.7586825,-0.2718114,0.13720056,1.0353049,0.0,0.0,0.0,0.0,777.6557,0.4569091796875,0.0595703125,0.8809814453125,0.91217041015625,1.158905029296875,3.12530517578125,1,4.0,4.0,4.0,4.0,25.00
2024-03-13 11:09:03.485,,,,,,,,,,,,,,,,,,,,,,,,,,,,,,,,,,,,,,/muse/elements/blink
2024-03-13 11:09:04.040,0.96970916,1.1704221,0.79829496,0.8416855,0.88943714,0.9473848,-0.3458577,0.5685025,0.59421265,0.7667574,0.1690705,0.7993519,0.863019,0.4360112,0.11087633,0.6224238,0.7586825,-0.2718114,0.13720056,1.0353049,638.24176,806.6667,777.6557,700.696,714.7985,0.3974609375,0.065185546875,0.91656494140625,2.07855224609375,-3.42437744140625,-1.368255615234375,1,2.0,1.0,1.0,2.0,25.00
2024-03-13 11:09:04.766,,,,,,,,,,,,,,,,,,,,,,,,,,,,,,,,,,,,,,/muse/elements/blink
2024-03-13 11:09:05.056,0.96970916,1.1704221,0.79829496,0.8416855,0.88943714,0.9473848,-0.3458577,0.5685025,0.59421265,0.7667574,0.1690705,0.7993519,0.863019,0.4360112,0.11087633,0.6224238,0.7586825,-0.2718114,0.13720056,1.0353049,780.07324,782.49084,755.4945,751.8681,734.5421,0.38311767578125,0.069580078125,0.9239501953125,1.21124267578125,-3.3795166015625,-1.278533935546875,1,2.0,1.0,1.0,2.0,25.00
2024-03-13 11:09:06.067,0.96970916,1.2323631,0.79829496,0.8416855,0.88943714,0.6434097,-0.3458577,0.5685025,0.59421265,0.6141868,0.1690705,0.7993519,0.863019,0.38404396,0.11087633,0.6224238,0.7586825,0.028291425,0.13720056,1.0353049,870.7326,765.56775,761.9414,885.2381,649.92676,0.37640380859375,0.0743408203125,0.93292236328125,-1.4056396484375,-3.177642822265625,0.897216796875,1,2.0,1.0,1.0,2.0,25.00
2024-03-13 11:09:06.109,,,,,,,,,,,,,,,,,,,,,,,,,,,,,,,,,,,,,,/muse/elements/blink
2024-03-13 11:09:06.594,,,,,,,,,,,,,,,,,,,,,,,,,,,,,,,,,,,,,,/muse/elements/blink
2024-03-13 11:09:07.073,0.96970916,1.2653471,0.79829496,0.8416855,0.88943714,0.26664847,-0.3458577,0.5685025,0.59421265,0.48913452,0.1690705,0.7993519,0.863019,0.4318141,0.11087633,0.6224238,0.7586825,0.083627656,0.13720056,1.0353049,739.7802,802.23444,736.1539,807.8755,697.8755,0.3740234375,0.07135009765625,0.92608642578125,0.515899658203125,-3.768310546875,-2.34771728515625,1,2.0,1.0,1.0,2.0,25.00
2024-03-13 11:09:08.083,0.96970916,1.2304215,0.79829496,0.8416855,0.88943714,0.27876684,-0.3458577,0.5685025,0.59421265,0.4700081,0.1690705,0.7993519,0.863019,0.42800176,0.11087633,0.6224238,0.7586825,0.11718915,0.13720056,1.0353049,796.5934,825.6044,764.35895,823.1868,702.71063,0.3773193359375,0.08660888671875,0.92242431640625,1.016845703125,-3.99261474609375,-1.652374267578125,1,2.0,1.0,1.0,2.0,25.00
2024-03-13 11:09:08.961,,,,,,,,,,,,,,,,,,,,,,,,,,,,,,,,,,,,,,/muse/elements/blink
2024-03-13 11:09:09.102,0.47479963,0.67330676,0.467747,0.8416855,0.48447353,0.6919298,-0.23811406,0.5685025,0.59796596,0.25135046,0.1528845,0.7993519,1.0442438,0.34410378,0.40093485,0.6224238,0.93956745,0.08754582,0.12229972,1.0353049,817.1429,815.9341,751.06226,849.7802,648.71796,0.3760986328125,0.10418701171875,0.92559814453125,1.5252685546875,-3.117828369140625,-0.515899658203125,1,1.0,1.0,1.0,1.0,25.00
2024-03-13 11:09:09.567,,,,,,,,,,,,,,,,,,,,,,,,,,,,,,,,,,,,,,/muse/elements/blink
2024-03-13 11:09:09.864,,,,,,,,,,,,,,,,,,,,,,,,,,,,,,,,,,,,,,/muse/elements/blink
2024-03-13 11:09:10.119,0.47479963,1.1393806,0.49111283,0.8416855,0.48447353,1.1177737,-0.28039557,0.5685025,0.59796596,1.0584143,0.10493512,0.7993519,1.0442438,0.3519376,0.40413973,0.6224238,0.93956745,0.115043275,0.12572736,1.0353049,816.7399,820.3663,786.9231,825.2015,682.1612,0.36456298828125,0.09521484375,0.93109130859375,1.495361328125,-4.388885498046875,-0.142059326171875,1,1.0,1.0,1.0,1.0,25.00
2024-03-13 11:09:11.122,0.47479963,1.1737486,0.49111283,0.8416855,0.48447353,1.1305206,-0.28039557,0.5685025,0.59796596,1.066602,0.10493512,0.7993519,1.0442438,0.24502017,0.40413973,0.6224238,0.93956745,-0.041967493,0.12572736,1.0353049,824.3956,816.7399,801.8315,822.381,796.5934,0.368408203125,0.09405517578125,0.9256591796875,0.5084228515625,-3.476715087890625,-1.57012939453125,1,1.0,1.0,1.0,1.0,25.00
2024-03-13 11:09:11.370,,,,,,,,,,,,,,,,,,,,,,,,,,,,,,,,,,,,,,/muse/elements/blink
2024-03-13 11:09:12.132,0.47479963,1.0524087,0.7709495,0.8416855,0.48447353,0.955681,0.49978882,0.5685025,0.59796596,1.0304543,0.22738749,0.7993519,1.0442438,0.17674387,0.39743036,0.6224238,0.93956745,-0.10297062,0.19511199,1.0353049,811.0989,807.0696,792.5641,824.3956,665.64105,0.36395263671875,0.0936279296875,0.92877197265625,1.981353759765625,-3.955230712890625,-0.95703125,1,2.0,1.0,1.0,2.0,25.00
2024-03-13 11:09:13.116,,,,,,,,,,,,,,,,,,,,,,,,,,,,,,,,,,,,,,/muse/elements/blink
2024-03-13 11:09:13.137,0.47479963,0.93187106,0.28505862,0.8416855,0.48447353,0.76097417,0.2845996,0.5685025,0.59796596,1.043068,0.17552215,0.7993519,1.0442438,0.2675709,-0.006026917,0.6224238,0.93956745,-0.0069566504,0.08780423,1.0353049,830.84247,821.5751,801.02563,840.10986,749.0476,0.371826171875,0.0875244140625,0.92877197265625,1.2261962890625,-4.007568359375,-1.33087158203125,1,2.0,1.0,1.0,2.0,25.00
2024-03-13 11:09:13.703,,,,,,,,,,,,,,,,,,,,,,,,,,,,,,,,,,,,,,/muse/elements/blink
2024-03-13 11:09:14.155,0.47479963,0.9634484,0.28293285,0.8416855,0.48447353,0.72211206,0.29223707,0.5685025,0.59796596,0.96028566,0.13143314,0.7993519,1.0442438,0.33700082,0.0058399863,0.6224238,0.93956745,0.14948453,0.055873547,1.0353049,790.9524,804.2491,793.36993,800.6227,725.2747,0.3626708984375,0.09991455078125,0.9307861328125,1.614990234375,-3.63372802734375,-0.471038818359375,1,2.0,1.0,1.0,2.0,25.00
2024-03-13 11:09:15.173,0.47479963,0.5553864,0.48044467,0.8416855,0.48447353,0.30072355,0.4226997,0.5685025,0.59796596,0.8128193,0.6310815,0.7993519,1.0442438,0.34147516,0.3380511,0.6224238,0.93956745,0.116466776,0.1484679,1.0353049,802.6374,815.12823,802.23444,838.49817,774.83514,0.373291015625,0.08856201171875,0.9248046875,0.9271240234375,-4.0374755859375,-1.8841552734375,1,2.0,1.0,1.0,2.0,25.00
2024-03-13 11:09:16.183,0.5897936,0.6818647,0.6609755,0.5869492,0.9137031,-0.07036507,0.5322981,0.960992,1.1690311,0.4993277,0.8794752,1.1691755,0.8521103,0.26090506,0.41210258,1.256068,0.4344201,0.082942314,0.32017344,0.90789485,796.1905,813.1135,801.8315,817.9487,730.10986,0.37725830078125,0.08740234375,0.9276123046875,1.562652587890625,-3.506622314453125,-1.697235107421875,1,1.0,1.0,1.0,1.0,25.00
2024-03-13 11:09:16.762,,,,,,,,,,,,,,,,,,,,,,,,,,,,,,,,,,,,,,/muse/elements/blink
2024-03-13 11:09:17.058,,,,,,,,,,,,,,,,,,,,,,,,,,,,,,,,,,,,,,/muse/elements/blink
2024-03-13 11:09:17.200,0.9686408,1.0924888,0.8433566,0.39722678,0.72550297,0.77473325,0.4024952,0.9962825,0.97603625,1.0035614,0.7934522,1.1691755,0.8163832,0.35153076,0.426776,1.3166494,0.5463561,0.024935186,0.32153058,0.882489,828.8278,815.12823,803.0403,844.1392,1127.3993,0.3646240234375,0.08563232421875,0.93408203125,1.712188720703125,-3.745880126953125,-1.45050048828125,1,1.0,1.0,1.0,1.0,25.00
2024-03-13 11:09:18.205,0.9686408,1.3083242,0.8433566,0.39722678,0.72550297,1.1760418,0.4024952,0.9962825,0.97603625,1.0963321,0.7934522,1.1691755,0.8163832,0.38702044,0.426776,1.3166494,0.5463561,0.041106515,0.32153058,0.882489,865.4945,794.57874,784.90845,888.86444,724.4689,0.350830078125,0.087646484375,0.931884765625,1.816864013671875,-4.2767333984375,-3.75335693359375,1,1.0,1.0,1.0,1.0,25.00
2024-03-13 11:09:18.295,,,,,,,,,,,,,,,,,,,,,,,,,,,,,,,,,,,,,,/muse/elements/blink
2024-03-13 11:09:18.900,,,,,,,,,,,,,,,,,,,,,,,,,,,,,,,,,,,,,,/muse/elements/blink
2024-03-13 11:09:19.214,0.9686408,1.3359829,0.8433566,0.39722678,0.72550297,1.1351675,0.4024952,0.9962825,0.97603625,1.0542812,0.7934522,1.1691755,0.8163832,0.43688133,0.426776,1.3166494,0.5463561,-0.07296195,0.32153058,0.882489,841.7216,819.9634,811.50183,853.4066,707.1429,0.35162353515625,0.09442138671875,0.93115234375,1.323394775390625,-3.372039794921875,-1.2261962890625,1,2.0,1.0,1.0,2.0,25.00
2024-03-13 11:09:20.224,0.9686408,0.31144154,0.8433566,0.39722678,0.72550297,0.20225956,0.4024952,0.9962825,0.97603625,0.3816909,0.7934522,1.1691755,0.8163832,0.2509329,0.426776,1.3166494,0.5463561,0.1286141,0.32153058,0.882489,828.4249,809.4872,805.8608,822.381,710.3663,0.3505859375,0.10162353515625,0.93096923828125,0.934600830078125,-4.0374755859375,-0.46356201171875,1,2.0,1.0,1.0,2.0,25.00
2024-03-13 11:09:20.529,,,,,,,,,,,,,,,,,,,,,,,,,,,,,,,,,,,,,,/muse/elements/blink
2024-03-13 11:09:20.951,,,,,,,,,,,,,,,,,,,,,,,,,,,,,,,,,,,,,,/muse/elements/blink
2024-03-13 11:09:21.237,0.9686408,1.0979441,0.8433566,0.39722678,0.72550297,1.0758979,0.4024952,0.9962825,0.97603625,1.0137186,0.7934522,1.1691755,0.8163832,0.41545495,0.426776,1.3166494,0.5463561,0.081394956,0.32153058,0.882489,798.60803,799.81683,789.34064,776.4469,967.4359,0.34552001953125,0.0928955078125,0.935302734375,1.368255615234375,-3.656158447265625,-1.487884521484375,1,2.0,1.0,1.0,2.0,25.00
2024-03-13 11:09:22.248,0.9686408,1.2802889,0.8433566,0.39722678,0.72550297,1.2552974,0.4024952,0.9962825,0.97603625,1.0137186,0.7934522,1.1691755,0.8163832,0.4537457,0.426776,1.3166494,0.5463561,0.11092962,0.32153058,0.882489,792.5641,800.2198,790.9524,797.8022,684.57874,0.35101318359375,0.102783203125,0.9393310546875,1.375732421875,-3.8580322265625,-0.8074951171875,1,2.0,1.0,1.0,2.0,25.00
2024-03-13 11:09:23.252,0.7644872,0.62224185,0.6217287,1.1138663,0.6254999,0.34547082,0.6085079,1.0039518,0.74600756,0.16511288,0.42060906,0.76456755,0.84355444,0.2940125,0.64739126,0.7406447,0.6886783,0.09682256,0.23665513,0.8073247,857.03296,809.4872,795.38464,862.674,879.19415,0.341796875,0.09796142578125,0.93939208984375,1.77947998046875,-4.299163818359375,-1.009368896484375,1,1.0,1.0,1.0,1.0,25.00
2024-03-13 11:09:23.312,,,,,,,,,,,,,,,,,,,,,,,,,,,,,,,,,,,,,,/muse/elements/blink
2024-03-13 11:09:24.269,0.7618619,0.9064047,0.89433986,1.0918658,0.5938318,0.53494483,0.8167598,0.9930182,0.5127977,0.11363568,0.3089715,0.5174547,0.8177089,0.34872958,0.59921443,0.63134116,0.71049356,-0.107559144,0.22728191,0.8901882,807.8755,809.4872,807.0696,812.71063,755.09155,0.34173583984375,0.0953369140625,0.93292236328125,1.592559814453125,-3.865509033203125,-1.024322509765625,1,1.0,1.0,1.0,1.0,25.00
2024-03-13 11:09:25.278,0.8803616,0.25569406,0.55182076,1.2544019,0.7175667,0.05816384,0.47365564,1.072978,1.1660792,0.44884184,0.24439175,1.0218794,0.94937825,0.1395536,0.634244,0.867736,0.69414765,-0.075431794,0.29811257,0.91738045,865.89746,799.81683,774.0293,847.76556,628.5714,0.34954833984375,0.09521484375,0.93280029296875,2.295379638671875,-3.9178466796875,-1.74957275390625,1,1.0,1.0,1.0,1.0,25.00
2024-03-13 11:09:25.287,,,,,,,,,,,,,,,,,,,,,,,,,,,,,,,,,,,,,,/muse/elements/blink
2024-03-13 11:09:26.293,0.98485774,0.38642555,0.44207036,1.2661726,0.73056465,0.10052918,0.39905536,1.068987,0.85336953,0.25619563,0.12151724,0.7289211,0.8233591,0.17954674,0.66152,0.9049915,0.7002701,-0.035667896,0.38075995,0.9937545,858.24176,783.2967,765.9707,865.4945,730.10986,0.3516845703125,0.09637451171875,0.94281005859375,1.308441162109375,-4.000091552734375,-0.7177734375,1,1.0,1.0,1.0,1.0,25.00
2024-03-13 11:09:26.329,,,,,,,,,,,,,,,,,,,,,,,,,,,,,,,,,,,,,,/muse/elements/blink
2024-03-13 11:09:26.612,,,,,,,,,,,,,,,,,,,,,,,,,,,,,,,,,,,,,,/muse/elements/blink
2024-03-13 11:09:26.833,,,,,,,,,,,,,,,,,,,,,,,,,,,,,,,,,,,,,,/muse/elements/blink
2024-03-13 11:09:27.299,0.98485774,1.4518707,0.44207036,1.2661726,0.73056465,1.4846971,0.39905536,1.068987,0.85336953,1.0424625,0.12151724,0.7289211,0.8233591,0.310778,0.66152,0.9049915,0.7002701,-0.122073226,0.38075995,0.9937545,776.04395,839.707,807.47253,774.0293,767.5824,0.34381103515625,0.11749267578125,0.9366455078125,2.392578125,-5.6524658203125,-0.560760498046875,1,1.0,1.0,1.0,1.0,25.00
2024-03-13 11:09:27.427,,,,,,,,,,,,,,,,,,,,,,,,,,,,,,,,,,,,,,/muse/elements/blink
2024-03-13 11:09:28.270,,,,,,,,,,,,,,,,,,,,,,,,,,,,,,,,,,,,,,/muse/elements/blink
2024-03-13 11:09:28.315,0.98485774,1.4385364,0.44207036,1.2661726,0.73056465,1.6826206,0.39905536,1.068987,0.85336953,1.037145,0.12151724,0.7289211,0.8233591,0.28453055,0.66152,0.9049915,0.7002701,-0.1737629,0.38075995,0.9937545,856.2271,780.4762,773.22345,836.8865,674.5055,0.39129638671875,0.0911865234375,0.95086669921875,-0.605621337890625,-1.435546875,-12.5909423828125,1,2.0,1.0,1.0,2.0,25.00
2024-03-13 11:09:28.783,,,,,,,,,,,,,,,,,,,,,,,,,,,,,,,,,,,,,,/muse/elements/blink
2024-03-13 11:09:29.323,0.98485774,1.344871,0.44207036,1.2661726,0.73056465,1.6909353,0.39905536,1.068987,0.85336953,1.0190104,0.12151724,0.7289211,0.8233591,0.25742307,0.66152,0.9049915,0.7002701,-0.1802075,0.38075995,0.9937545,837.6923,799.81683,807.8755,824.3956,828.4249,0.34539794921875,0.07916259765625,0.924072265625,-0.635528564453125,-2.61688232421875,1.18133544921875,1,2.0,1.0,1.0,2.0,25.00
2024-03-13 11:09:30.335,0.98485774,0.81517553,0.44207036,1.2661726,0.73056465,0.5931144,0.39905536,1.068987,0.85336953,0.58400965,0.12151724,0.7289211,0.8233591,0.14355609,0.66152,0.9049915,0.7002701,0.10840369,0.38075995,0.9937545,830.0366,817.5458,823.1868,850.989,1077.8389,0.3524169921875,0.0821533203125,0.93377685546875,0.13458251953125,-3.06549072265625,-1.973876953125,1,2.0,1.0,1.0,2.0,25.00
2024-03-13 11:09:31.338,0.86228037,0.6952986,0.6627518,0.7262523,0.47368333,0.43786445,0.19609906,0.6310201,0.7504925,0.63083243,0.435154,0.5157332,0.79865575,0.21519761,0.34420842,0.7270032,0.8070219,-0.062462796,0.14449881,0.70584536,797.8022,819.5604,798.20514,815.5311,639.85345,0.34832763671875,0.0853271484375,0.9454345703125,2.55706787109375,-3.730926513671875,-0.934600830078125,1,1.0,1.0,1.0,1.0,25.00
2024-03-13 11:09:32.347,0.8146688,0.87429744,0.7903256,0.79912275,0.55407226,0.14039199,0.06551953,0.80040395,0.918724,0.6043375,0.39153373,0.72380936,0.84817326,0.3911951,0.3764538,0.89790636,0.86982936,0.122894585,0.16224365,0.70752394,788.93774,801.8315,808.68134,817.1429,652.74725,0.33819580078125,0.067138671875,0.9345703125,1.18133544921875,-3.401947021484375,-1.57012939453125,1,1.0,1.0,1.0,1.0,25.00
2024-03-13 11:09:32.801,,,,,,,,,,,,,,,,,,,,,,,,,,,,,,,,,,,,,,/muse/elements/blink
2024-03-13 11:09:33.367,0.78099173,0.4222019,0.5817022,0.7047525,0.76688355,-0.105538726,0.27721864,0.6731099,0.8403132,0.17687774,0.21588317,0.64333403,0.8652291,0.2871082,0.35245457,0.98296773,0.8019996,0.2026312,0.14813292,0.7170879,803.44324,805.05493,805.4579,811.9048,763.5531,0.3431396484375,0.087158203125,0.94085693359375,1.31591796875,-4.164581298828125,-0.538330078125,1,1.0,1.0,1.0,1.0,25.00
2024-03-13 11:09:34.245,,,,,,,,,,,,,,,,,,,,,,,,,,,,,,,,,,,,,,/muse/elements/blink
2024-03-13 11:09:34.383,0.9253602,0.43918997,0.40096608,0.68769217,0.90565735,0.39153552,0.39112657,0.36240485,0.7675194,0.07393082,0.07735763,0.57161754,0.89488643,0.27812642,0.3505321,0.9708011,0.81464404,0.2836599,0.11225006,0.72177356,826.0073,809.4872,808.68134,834.0659,911.4286,0.34271240234375,0.08001708984375,0.935302734375,2.093505859375,-3.70849609375,-0.8074951171875,1,1.0,1.0,1.0,1.0,25.00
2024-03-13 11:09:35.235,,,,,,,,,,,,,,,,,,,,,,,,,,,,,,,,,,,,,,/muse/elements/blink
2024-03-13 11:09:35.396,0.9253602,0.7502749,0.40096608,0.68769217,0.90565735,0.67650086,0.39112657,0.36240485,0.7675194,0.6606113,0.07735763,0.57161754,0.89488643,0.24493626,0.3505321,0.9708011,0.81464404,0.16091356,0.11225006,0.72177356,649.5238,862.674,899.34064,651.53845,631.79486,0.33721923828125,0.0877685546875,0.94329833984375,1.7047119140625,-4.149627685546875,-1.27105712890625,1,2.0,1.0,1.0,2.0,25.00
2024-03-13 11:09:35.561,,,,,,,,,,,,,,,,,,,,,,,,,,,,,,,,,,,,,,/muse/elements/blink
2024-03-13 11:09:36.403,0.9253602,1.3505371,0.40096608,0.68769217,0.90565735,1.2380179,0.39112657,0.36240485,0.7675194,0.80152977,0.07735763,0.57161754,0.89488643,0.34958598,0.3505321,0.9708011,0.81464404,0.17922992,0.11225006,0.72177356,776.8498,785.7143,790.9524,803.44324,691.8315,0.34234619140625,0.08428955078125,0.9354248046875,1.981353759765625,-4.299163818359375,0.37384033203125,1,2.0,1.0,1.0,2.0,25.00
2024-03-13 11:09:36.792,,,,,,,,,,,,,,,,,,,,,,,,,,,,,,,,,,,,,,/muse/elements/blink
2024-03-13 11:09:36.985,,,,,,,,,,,,,,,,,,,,,,,,,,,,,,,,,,,,,,/muse/elements/blink
2024-03-13 11:09:37.405,0.9253602,1.254466,0.40096608,0.68769217,0.90565735,1.3031911,0.39112657,0.36240485,0.7675194,0.46682966,0.07735763,0.57161754,0.89488643,0.41060585,0.3505321,0.9708011,0.81464404,-0.049339123,0.11225006,0.72177356,877.5824,785.7143,768.7912,881.2088,793.7729,0.3397216796875,0.07916259765625,0.9368896484375,1.099090576171875,-3.63372802734375,-1.457977294921875,1,2.0,1.0,1.0,2.0,25.00
2024-03-13 11:09:37.487,,,,,,,,,,,,,,,,,,,,,,,,,,,,,,,,,,,,,,/muse/elements/blink
2024-03-13 11:09:38.440,0.9253602,1.4130172,0.40096608,0.68769217,0.90565735,1.3307482,0.39112657,0.36240485,0.7675194,0.53944165,0.07735763,0.57161754,0.89488643,0.36796695,0.3505321,0.9708011,0.81464404,-0.036182653,0.11225006,0.72177356,804.65204,821.1722,813.1135,821.1722,659.19415,0.3260498046875,0.09112548828125,0.952880859375,1.861724853515625,-3.9178466796875,-2.848663330078125,1,2.0,1.0,1.0,2.0,25.00
2024-03-13 11:09:39.443,1.0308396,0.94317114,0.85367674,1.0064608,1.1414989,0.24919444,0.3081287,0.94841295,1.0948809,0.44448456,0.027718237,1.0293394,1.040325,0.32373625,0.4253134,0.7151598,0.65121025,-0.14747678,0.15826927,0.56107134,807.47253,812.3077,808.2784,811.0989,700.696,0.33636474609375,0.08697509765625,0.9420166015625,1.5850830078125,-4.463653564453125,-0.6878662109375,1,1.0,1.0,1.0,1.0,20.00
2024-03-13 11:09:40.457,0.7880335,0.686718,0.5100033,0.9356564,1.0126413,0.0051667164,0.15296948,0.9384605,1.1715336,0.38122502,0.1963807,1.038366,1.0300196,0.36007237,0.45153278,0.7641054,0.72241545,-0.02489436,0.26056504,0.5629204,813.1135,799.41394,808.68134,801.02563,788.93774,0.33978271484375,0.07611083984375,0.93597412109375,1.278533935546875,-4.5159912109375,-1.375732421875,1,1.0,1.0,1.0,1.0,20.00
2024-03-13 11:09:41.069,,,,,,,,,,,,,,,,,,,,,,,,,,,,,,,,,,,,,,/muse/elements/blink
2024-03-13 11:09:41.479,0.29107603,0.43368992,0.017914996,0.70181465,0.5124343,0.14187273,0.07005554,0.66990024,0.8539244,0.22904338,0.19379757,0.59714884,0.9003824,0.25733808,0.4283027,0.54344136,0.76336306,-0.0625659,0.23540689,0.5393272,815.9341,820.3663,815.9341,826.4103,633.4066,0.33184814453125,0.074951171875,0.941650390625,1.68975830078125,-3.9776611328125,-0.7177734375,1,1.0,1.0,1.0,1.0,20.00
2024-03-13 11:09:42.254,,,,,,,,,,,,,,,,,,,,,,,,,,,,,,,,,,,,,,/muse/elements/blink
2024-03-13 11:09:42.491,0.3577181,0.70213544,-0.18451087,0.59658456,0.45786422,0.24628055,0.0056049256,0.41028148,0.7958011,0.23339619,0.036328,0.55943084,0.8321401,0.36144936,0.42888147,0.45915073,0.8087756,-0.012882426,0.26138857,0.5181073,834.4689,805.05493,805.8608,822.7839,648.315,0.33880615234375,0.08367919921875,0.94122314453125,0.58319091796875,-4.942169189453125,1.39068603515625,1,1.0,1.0,1.0,1.0,20.00
2024-03-13 11:09:43.505,0.3577181,0.69727325,-0.18451087,0.59658456,0.45786422,0.5867586,0.0056049256,0.41028148,0.7958011,0.47244975,0.036328,0.55943084,0.8321401,0.22187062,0.42888147,0.45915073,0.8087756,0.12911129,0.26138857,0.5181073,811.9048,802.6374,815.9341,830.84247,778.86444,0.33685302734375,0.08343505859375,0.93597412109375,1.4056396484375,-3.15521240234375,-1.2860107421875,1,2.0,1.0,1.0,2.0,20.00
2024-03-13 11:09:44.519,0.9921383,0.58272314,0.37599275,0.8669088,0.7821592,0.47721303,0.4163306,0.6686193,0.7539376,0.5729099,0.46558693,0.7809222,0.7551998,0.23679265,0.28359845,0.86069185,0.6492767,0.007278415,0.17306136,0.6777856,811.0989,813.5165,811.9048,813.5165,617.28937,0.33453369140625,0.0938720703125,0.9388427734375,1.21124267578125,-3.476715087890625,-1.607513427734375,1,1.0,1.0,1.0,1.0,20.00
2024-03-13 11:09:44.611,,,,,,,,,,,,,,,,,,,,,,,,,,,,,,,,,,,,,,/muse/elements/blink
2024-03-13 11:09:45.515,,,,,,,,,,,,,,,,,,,,,,,,,,,,,,,,,,,,,,/muse/elements/blink
2024-03-13 11:09:45.536,0.93200195,0.74197,0.602298,0.503579,0.625505,0.46704835,0.3147134,0.47225714,0.7051606,0.46910796,0.052946936,0.5359482,0.7161722,0.22235261,0.23408891,0.8682676,0.65815663,-0.33858904,0.228723,0.34748268,846.55676,807.47253,817.1429,853.00366,589.89014,0.34161376953125,0.0931396484375,0.93743896484375,1.21124267578125,-3.820648193359375,-1.6748046875,1,1.0,1.0,1.0,1.0,20.00
2024-03-13 11:09:46.545,0.93200195,1.237534,0.602298,0.503579,0.625505,0.8589759,0.3147134,0.47225714,0.7051606,0.46596354,0.052946936,0.5359482,0.7161722,0.1617873,0.23408891,0.8682676,0.65815663,-0.058160707,0.228723,0.34748268,822.7839,812.3077,809.89014,830.4396,766.77655,0.3426513671875,0.09613037109375,0.93798828125,1.5252685546875,-4.17205810546875,-1.00189208984375,1,1.0,1.0,1.0,1.0,20.00
2024-03-13 11:09:47.553,0.40482646,0.27155632,0.15050907,0.4652998,0.0881004,-0.015632272,-0.10038916,0.14305012,0.4386722,0.3034437,0.24401705,0.23630711,0.6711378,0.2411854,0.35884848,0.6426004,0.5860714,0.0047963555,0.28489375,0.42900068,801.4286,811.0989,806.6667,836.4835,932.381,0.336181640625,0.0966796875,0.9415283203125,1.472930908203125,-4.194488525390625,-1.158905029296875,1,1.0,1.0,1.0,1.0,20.00
2024-03-13 11:09:48.110,,,,,,,,,,,,,,,,,,,,,,,,,,,,,,,,,,,,,,/muse/elements/blink
2024-03-13 11:09:48.472,,,,,,,,,,,,,,,,,,,,,,,,,,,,,,,,,,,,,,/muse/elements/blink
2024-03-13 11:09:48.582,0.760172,0.20062578,0.33786342,0.7075152,0.36089528,-0.069199614,0.025981804,0.30237308,0.7373718,0.19796573,0.23356621,0.40868592,0.80870146,0.3447121,0.4783627,0.6999983,0.58933264,-0.035351917,0.18887071,0.54014254,852.6007,810.696,799.81683,861.8681,734.1392,0.34271240234375,0.099365234375,0.9385986328125,1.31591796875,-3.357086181640625,-0.680389404296875,1,1.0,1.0,1.0,1.0,20.00
2024-03-13 11:09:49.603,0.9015028,1.3138095,0.39440036,0.83157194,0.45878497,1.1456006,0.084740624,0.4675932,0.7267448,0.6892615,0.19465543,0.40645793,0.9193699,0.43855903,0.4332429,0.6131514,0.47504377,-0.0137265865,0.1377549,0.5460873,803.44324,817.5458,809.0842,808.68134,653.5531,0.34429931640625,0.09588623046875,0.93658447265625,1.143951416015625,-3.686065673828125,-1.07666015625,1,1.0,1.0,1.0,1.0,25.00
2024-03-13 11:09:50.618,0.6363366,0.51683885,0.37266657,0.6169557,0.19815719,0.28371093,-0.32080838,0.36293092,0.7009707,0.44094735,0.1510294,0.54375774,0.8279109,0.30986455,0.43033245,0.7845747,0.75269115,0.061415534,0.24927732,0.523431,842.9304,826.8132,815.12823,828.8278,757.9121,0.341796875,0.09942626953125,0.93359375,1.016845703125,-3.70849609375,-0.800018310546875,1,1.0,1.0,1.0,1.0,25.00
2024-03-13 11:09:51.644,0.65656763,0.5440927,0.4150132,0.49808377,0.39814648,0.38159853,0.1615446,0.22454531,0.7602097,0.60037434,0.25547358,0.54824543,0.7426552,0.22981693,0.27105412,0.7088973,0.7156054,0.09141259,0.30656615,0.5021493,823.5897,811.50183,800.6227,812.3077,713.5897,0.3421630859375,0.09417724609375,0.94378662109375,1.45050048828125,-4.224395751953125,-0.64300537109375,1,1.0,1.0,1.0,1.0,25.00
2024-03-13 11:09:52.662,0.42210403,0.5716901,0.2934088,0.21560362,0.3754332,0.2002932,0.124924086,0.36672443,0.75493765,0.20879896,0.31852028,0.43733236,0.6296806,0.17777419,0.41966134,0.69255316,0.4383575,0.038557116,0.25560907,0.33455384,831.2454,815.9341,811.0989,825.6044,756.7033,0.345458984375,0.091064453125,0.93267822265625,1.532745361328125,-3.327178955078125,-1.472930908203125,1,1.0,1.0,1.0,1.0,25.00
2024-03-13 11:09:53.342,,,,,,,,,,,,,,,,,,,,,,,,,,,,,,,,,,,,,,/muse/elements/blink
2024-03-13 11:09:53.665,0.13421065,0.589797,0.20441894,0.016826168,0.23102085,0.81946206,-0.24131177,0.36638495,0.4866572,0.43719953,0.25816453,0.30724233,0.5914458,0.31575495,0.38019595,0.71142745,0.5633076,-0.0076625757,0.14190993,0.44946152,823.9927,812.71063,811.0989,830.0366,719.6337,0.3297119140625,0.0897216796875,0.9375,0.814971923828125,-3.865509033203125,-1.757049560546875,1,1.0,1.0,1.0,1.0,25.00
2024-03-13 11:09:54.677,0.063228324,0.9541459,0.4724688,0.059974622,0.33678645,1.2034811,-0.14470844,0.25853875,0.37349847,0.5553512,0.25816453,0.25283104,0.6525542,0.3760901,0.40546107,0.74264866,0.67007077,-0.08258367,0.13286321,0.590124,810.696,817.5458,815.5311,819.5604,667.25275,0.34307861328125,0.094482421875,0.939453125,1.74957275390625,-3.760833740234375,-0.067291259765625,1,1.0,1.0,1.0,1.0,25.00
2024-03-13 11:09:55.693,1.0375813,0.8840397,0.82529986,0.643866,0.8729781,0.39140138,0.19002518,0.78240746,0.71972096,0.4700366,0.48981157,0.6220283,0.92753,0.28839266,0.15920557,0.7373843,0.6802288,-0.02046125,0.20383705,0.5770178,903.7729,797.3993,780.07324,883.6264,647.9121,0.35369873046875,0.0906982421875,0.937744140625,1.876678466796875,-4.284210205078125,-1.15142822265625,1,1.0,1.0,1.0,1.0,25.00
2024-03-13 11:09:55.710,,,,,,,,,,,,,,,,,,,,,,,,,,,,,,,,,,,,,,/muse/elements/blink
2024-03-13 11:09:56.709,1.0385939,0.7571591,0.65388983,0.41619095,0.81749773,0.38976893,0.16384856,0.6267225,0.71972096,0.45105603,0.36518255,0.55663884,0.87685245,0.24270923,0.20328844,0.72476786,0.71266335,0.03215237,0.2830875,0.5403035,794.9817,823.1868,803.44324,805.05493,1099.1941,0.35418701171875,0.09814453125,0.94622802734375,2.699127197265625,-4.29168701171875,-1.951446533203125,1,1.0,1.0,1.0,1.0,25.00
2024-03-13 11:09:57.720,1.1031309,0.6867002,0.7546666,0.41619095,0.93531895,0.20910749,-0.07545523,0.6267225,0.9460446,0.29687667,0.15477452,0.55663884,0.836642,0.27808005,0.27883783,0.72476786,0.71806157,0.030947248,0.17942509,0.5403035,898.5348,811.50183,813.5165,890.07324,754.2857,0.33837890625,0.09735107421875,0.9638671875,0.456085205078125,-7.155303955078125,0.650482177734375,1,1.0,1.0,1.0,1.0,25.00
2024-03-13 11:09:58.032,,,,,,,,,,,,,,,,,,,,,,,,,,,,,,,,,,,,,,/muse/elements/blink
2024-03-13 11:09:58.198,,,,,,,,,,,,,,,,,,,,,,,,,,,,,,,,,,,,,,/muse/elements/blink
2024-03-13 11:09:58.731,0.9073125,0.61767113,0.5912621,0.41619095,0.827221,0.09959823,0.19472702,0.6267225,0.9256509,-0.05586064,0.2394441,0.55663884,0.5881515,0.3029688,0.26509148,0.72476786,0.7460298,0.03974371,0.17346734,0.5403035,989.59705,874.7619,1331.2821,951.7216,579.011,0.01605224609375,0.22149658203125,1.09185791015625,11.23016357421875,4.8748779296875,3.289794921875,1,1.0,1.0,1.0,1.0,25.00
2024-03-13 11:09:58.807,,,,,,,,,,,,,,,,,,,,,,,,,,,,,,,,,,,,,,/muse/elements/jaw_clench
2024-03-13 11:09:58.917,,,,,,,,,,,,,,,,,,,,,,,,,,,,,,,,,,,,,,/muse/elements/blink
2024-03-13 11:09:59.756,0.9073125,0.7099577,0.6613278,0.41619095,0.827221,0.16375007,0.34186977,0.6267225,0.9256509,-0.21751893,0.23746839,0.55663884,0.5881515,0.26244155,0.19706152,0.72476786,0.7460298,-0.031739905,0.23559733,0.5403035,928.7546,836.08057,856.63007,987.1795,670.07324,0.0701904296875,0.0859375,1.00653076171875,1.009368896484375,-10.430145263671875,-5.854339599609375,1,1.0,2.0,2.0,1.0,20.00
2024-03-13 11:10:00.288,,,,,,,,,,,,,,,,,,,,,,,,,,,,,,,,,,,,,,/muse/elements/blink
2024-03-13 11:10:00.288,,,,,,,,,,,,,,,,,,,,,,,,,,,,,,,,,,,,,,/muse/elements/jaw_clench
2024-03-13 11:10:00.697,,,,,,,,,,,,,,,,,,,,,,,,,,,,,,,,,,,,,,/muse/elements/jaw_clench
2024-03-13 11:10:00.760,0.9073125,0.7099577,0.6613278,0.41619095,0.827221,0.16375007,0.34186977,0.6267225,0.9256509,-0.21751893,0.23746839,0.55663884,0.5881515,0.26244155,0.19706152,0.72476786,0.7460298,-0.031739905,0.23559733,0.5403035,925.12823,912.6374,886.04395,918.2784,663.6264,0.20361328125,0.17633056640625,1.01263427734375,-5.869293212890625,-6.4898681640625,0.97198486328125,1,2.0,1.0,1.0,2.0,20.00
2024-03-13 11:10:00.930,,,,,,,,,,,,,,,,,,,,,,,,,,,,,,,,,,,,,,/muse/elements/jaw_clench
2024-03-13 11:10:01.070,,,,,,,,,,,,,,,,,,,,,,,,,,,,,,,,,,,,,,/muse/elements/blink
2024-03-13 11:10:01.199,,,,,,,,,,,,,,,,,,,,,,,,,,,,,,,,,,,,,,/muse/elements/jaw_clench
2024-03-13 11:10:01.241,,,,,,,,,,,,,,,,,,,,,,,,,,,,,,,,,,,,,,/muse/elements/blink
2024-03-13 11:10:01.445,,,,,,,,,,,,,,,,,,,,,,,,,,,,,,,,,,,,,,/muse/elements/blink
2024-03-13 11:10:01.445,,,,,,,,,,,,,,,,,,,,,,,,,,,,,,,,,,,,,,/muse/elements/jaw_clench
2024-03-13 11:10:01.777,0.9073125,0.7099577,0.6613278,0.41619095,0.827221,0.16375007,0.34186977,0.6267225,0.9256509,-0.21751893,0.23746839,0.55663884,0.5881515,0.26244155,0.19706152,0.72476786,0.7460298,-0.031739905,0.23559733,0.5403035,1626.63,1627.033,1627.033,1627.033,830.0366,0.3338623046875,0.1019287109375,0.92962646484375,-1.4056396484375,-5.562744140625,-3.84307861328125,1,2.0,2.0,1.0,2.0,20.00
2024-03-13 11:10:02.365,,,,,,,,,,,,,,,,,,,,,,,,,,,,,,,,,,,,,,/muse/elements/blink
2024-03-13 11:10:02.789,0.9073125,0.7099577,0.6613278,0.41619095,0.827221,0.16375007,0.34186977,0.6267225,0.9256509,-0.21751893,0.23746839,0.55663884,0.5881515,0.26244155,0.19706152,0.72476786,0.7460298,-0.031739905,0.23559733,0.5403035,674.10254,669.67035,504.46887,664.0293,660.0,0.3505859375,0.11090087890625,0.9384765625,1.65985107421875,-3.656158447265625,-1.18133544921875,1,2.0,2.0,2.0,2.0,20.00
2024-03-13 11:10:02.900,,,,,,,,,,,,,,,,,,,,,,,,,,,,,,,,,,,,,,/muse/elements/blink
2024-03-13 11:10:03.790,0.9073125,0.7099577,0.6613278,0.41619095,0.827221,0.16375007,0.34186977,0.6267225,0.9256509,-0.21751893,0.23746839,0.55663884,0.5881515,0.26244155,0.19706152,0.72476786,0.7460298,-0.031739905,0.23559733,0.5403035,570.9524,675.7143,0.0,541.13556,743.00366,0.34228515625,0.13751220703125,0.93609619140625,5.166473388671875,-22.093963623046875,-7.237548828125,1,2.0,1.0,4.0,2.0,20.00
2024-03-13 11:10:03.969,,,,,,,,,,,,,,,,,,,,,,,,,,,,,,,,,,,,,,/muse/elements/blink
2024-03-13 11:10:04.792,0.9073125,0.7099577,0.6613278,0.41619095,0.827221,0.16375007,0.34186977,0.6267225,0.9256509,-0.21751893,0.23746839,0.55663884,0.5881515,0.26244155,0.19706152,0.72476786,0.7460298,-0.031739905,0.23559733,0.5403035,356.99634,628.5714,728.49817,390.43958,801.4286,0.4407958984375,0.08831787109375,0.89697265625,4.08233642578125,-2.0635986328125,-3.289794921875,1,2.0,1.0,4.0,2.0,20.00
2024-03-13 11:10:04.807,,,,,,,,,,,,,,,,,,,,,,,,,,,,,,,,,,,,,,/muse/elements/blink
2024-03-13 11:10:05.437,,,,,,,,,,,,,,,,,,,,,,,,,,,,,,,,,,,,,,/muse/elements/blink
2024-03-13 11:10:05.805,0.9073125,0.7099577,0.6613278,0.41619095,0.827221,0.16375007,0.34186977,0.6267225,0.9256509,-0.21751893,0.23746839,0.55663884,0.5881515,0.26244155,0.19706152,0.72476786,0.7460298,-0.031739905,0.23559733,0.5403035,0.0,0.0,0.0,0.0,618.0952,0.47802734375,0.065673828125,0.872314453125,-0.844879150390625,0.52337646484375,-1.876678466796875,1,4.0,4.0,4.0,4.0,20.00
2024-03-13 11:10:05.917,,,,,,,,,,,,,,,,,,,,,,,,,,,,,,,,,,,,,,/muse/elements/blink
2024-03-13 11:10:06.310,,,,,,,,,,,,,,,,,,,,,,,,,,,,,,,,,,,,,,/muse/elements/blink
2024-03-13 11:10:06.815,0.9073125,0.7099577,0.6613278,0.41619095,0.827221,0.16375007,0.34186977,0.6267225,0.9256509,-0.21751893,0.23746839,0.55663884,0.5881515,0.26244155,0.19706152,0.72476786,0.7460298,-0.031739905,0.23559733,0.5403035,616.08057,712.7839,807.0696,703.5165,836.8865,0.458740234375,0.063232421875,0.88861083984375,1.9439697265625,-3.4991455078125,-2.01873779296875,1,2.0,2.0,2.0,2.0,20.00
2024-03-13 11:10:07.817,0.9073125,0.7099577,0.6613278,0.41619095,0.827221,0.16375007,0.34186977,0.6267225,0.9256509,-0.21751893,0.23746839,0.55663884,0.5881515,0.26244155,0.19706152,0.72476786,0.7460298,-0.031739905,0.23559733,0.5403035,676.9231,820.7692,716.8132,713.5897,752.27106,0.46881103515625,0.0701904296875,0.87420654296875,-0.515899658203125,-3.058013916015625,-1.79443359375,1,2.0,1.0,1.0,2.0,20.00
2024-03-13 11:10:08.383,,,,,,,,,,,,,,,,,,,,,,,,,,,,,,,,,,,,,,/muse/elements/jaw_clench
2024-03-13 11:10:08.576,,,,,,,,,,,,,,,,,,,,,,,,,,,,,,,,,,,,,,/muse/elements/blink
2024-03-13 11:10:08.831,0.9073125,0.7099577,0.6613278,0.41619095,0.827221,0.16375007,0.34186977,0.6267225,0.9256509,-0.21751893,0.23746839,0.55663884,0.5881515,0.26244155,0.19706152,0.72476786,0.7460298,-0.031739905,0.23559733,0.5403035,815.5311,693.44324,655.16486,832.4542,620.10986,0.423828125,0.10711669921875,0.90936279296875,-0.5682373046875,-15.379791259765625,-2.91595458984375,1,2.0,1.0,1.0,2.0,20.00
2024-03-13 11:10:09.067,,,,,,,,,,,,,,,,,,,,,,,,,,,,,,,,,,,,,,/muse/elements/blink
2024-03-13 11:10:09.272,,,,,,,,,,,,,,,,,,,,,,,,,,,,,,,,,,,,,,/muse/elements/blink
2024-03-13 11:10:09.685,,,,,,,,,,,,,,,,,,,,,,,,,,,,,,,,,,,,,,/muse/elements/blink
2024-03-13 11:10:09.848,0.9073125,0.7099577,0.6613278,0.41619095,0.827221,0.16375007,0.34186977,0.6267225,0.9256509,-0.21751893,0.23746839,0.55663884,0.5881515,0.26244155,0.19706152,0.72476786,0.7460298,-0.031739905,0.23559733,0.5403035,574.17584,923.91943,875.9707,617.28937,771.2088,0.428955078125,0.07196044921875,0.90313720703125,0.874786376953125,-3.63372802734375,-0.052337646484375,1,2.0,1.0,1.0,2.0,25.00
2024-03-13 11:10:10.048,,,,,,,,,,,,,,,,,,,,,,,,,,,,,,,,,,,,,,/muse/elements/blink
2024-03-13 11:10:10.394,,,,,,,,,,,,,,,,,,,,,,,,,,,,,,,,,,,,,,/muse/elements/blink
2024-03-13 11:10:10.589,,,,,,,,,,,,,,,,,,,,,,,,,,,,,,,,,,,,,,/muse/elements/blink
2024-03-13 11:10:10.863,0.9073125,0.7099577,0.6613278,0.41619095,0.827221,0.16375007,0.34186977,0.6267225,0.9256509,-0.21751893,0.23746839,0.55663884,0.5881515,0.26244155,0.19706152,0.72476786,0.7460298,-0.031739905,0.23559733,0.5403035,809.4872,809.89014,758.315,806.26373,936.0073,0.38262939453125,0.07537841796875,0.91802978515625,2.863616943359375,-3.730926513671875,-2.190704345703125,1,2.0,1.0,1.0,2.0,25.00
2024-03-13 11:10:11.529,,,,,,,,,,,,,,,,,,,,,,,,,,,,,,,,,,,,,,/muse/elements/blink
2024-03-13 11:10:11.801,,,,,,,,,,,,,,,,,,,,,,,,,,,,,,,,,,,,,,/muse/elements/blink
2024-03-13 11:10:11.873,0.9073125,1.3961992,0.6613278,0.41619095,0.827221,1.1073742,0.34186977,0.6267225,0.9256509,0.870465,0.23746839,0.55663884,0.5881515,0.41014832,0.19706152,0.72476786,0.7460298,0.21806361,0.23559733,0.5403035,846.55676,815.9341,752.674,826.8132,611.6484,0.38165283203125,0.09246826171875,0.93292236328125,1.293487548828125,-4.127197265625,-2.4822998046875,1,2.0,1.0,1.0,2.0,25.00
2024-03-13 11:10:12.881,0.9073125,1.512957,0.6613278,0.41619095,0.827221,1.1945112,0.34186977,0.6267225,0.9256509,0.92492867,0.23746839,0.55663884,0.5881515,0.4002225,0.19706152,0.72476786,0.7460298,0.15997858,0.23559733,0.5403035,810.696,815.12823,778.86444,819.5604,758.71796,0.3739013671875,0.07794189453125,0.93499755859375,1.966400146484375,-4.358978271484375,-1.016845703125,1,2.0,1.0,1.0,2.0,25.00
2024-03-13 11:10:13.890,0.04226404,0.7562117,0.1643825,0.48969585,0.26566404,0.7564478,0.0605151,0.41622075,0.6183801,0.7278816,0.22263753,0.47548157,0.99551743,0.36678064,0.2524859,0.87384117,0.91802657,0.08225051,0.3160155,1.0395488,830.0366,824.3956,803.44324,826.8132,738.5714,0.37353515625,0.0794677734375,0.92950439453125,1.338348388671875,-3.70849609375,-0.994415283203125,1,1.0,1.0,1.0,1.0,25.00
2024-03-13 11:10:14.902,0.5223125,0.7841315,0.71915466,0.5828179,0.63968676,0.57093525,0.029091345,0.53755796,0.69328207,0.7445857,0.22638275,0.7385485,1.0619115,0.28935656,0.2801634,0.9734098,0.7692958,0.1177164,0.16237737,0.899286,817.9487,816.7399,781.28204,809.4872,627.3626,0.37115478515625,0.08026123046875,0.92327880859375,1.742095947265625,-3.730926513671875,-1.2860107421875,1,1.0,1.0,1.0,1.0,25.00
2024-03-13 11:10:15.910,0.7107223,0.6689685,0.5317283,0.6844964,0.68875027,0.40590048,0.2796342,0.5758046,0.6187419,0.355147,0.23086762,0.7380456,0.92458946,0.31983462,0.43517435,0.8828288,0.67769635,0.103181675,0.22057919,0.8137797,801.4286,800.6227,772.01465,827.2161,1093.5531,0.37109375,0.07733154296875,0.93060302734375,1.614990234375,-3.775787353515625,-0.740203857421875,1,1.0,1.0,1.0,1.0,25.00
2024-03-13 11:10:16.900,,,,,,,,,,,,,,,,,,,,,,,,,,,,,,,,,,,,,,/muse/elements/blink
2024-03-13 11:10:16.914,0.6887905,0.5977372,0.19519243,0.83328974,0.3963739,0.3808876,0.17824022,0.4410229,0.92091155,0.5822654,0.110203676,0.8134601,0.826486,0.15745178,0.33959916,0.64798766,0.78968203,0.10860999,0.308205,0.60739666,838.0952,788.5348,757.9121,839.304,735.34796,0.3697509765625,0.07891845703125,0.92901611328125,1.443023681640625,-3.768310546875,-0.994415283203125,1,1.0,1.0,1.0,1.0,25.00
2024-03-13 11:10:17.891,,,,,,,,,,,,,,,,,,,,,,,,,,,,,,,,,,,,,,/muse/elements/blink
2024-03-13 11:10:17.921,0.80180645,0.78019226,4.6860063E-4,1.0250661,0.41074267,0.42493683,0.18267596,0.6981683,0.92091155,0.5029106,0.057104472,0.7718762,0.8955101,0.024849283,0.3854066,0.74224836,0.9096058,0.19837005,0.057440855,0.40858847,865.4945,813.1135,787.72894,854.61536,620.10986,0.36688232421875,0.0802001953125,0.93890380859375,1.5252685546875,-4.20196533203125,-0.91217041015625,1,1.0,1.0,1.0,1.0,25.00
2024-03-13 11:10:18.943,0.80180645,1.5818739,4.6860063E-4,1.0250661,0.41074267,1.4356964,0.18267596,0.6981683,0.92091155,0.69377923,0.057104472,0.7718762,0.8955101,0.36559218,0.3854066,0.74224836,0.9096058,0.1432986,0.057440855,0.40858847,813.91943,817.1429,800.6227,829.2308,707.5458,0.3673095703125,0.08203125,0.93035888671875,1.4056396484375,-3.551483154296875,-1.15142822265625,1,1.0,1.0,1.0,1.0,25.00
2024-03-13 11:10:19.951,0.18030088,0.42323026,0.1595218,0.0925019,0.3713549,0.42490038,0.1353011,0.2584433,0.6139046,0.25689748,0.40188798,0.6397431,0.81732184,0.38567987,0.41016886,0.76419294,0.6564893,0.065279,0.13825491,0.5092108,790.9524,817.5458,822.7839,779.2674,711.1722,0.36444091796875,0.0870361328125,0.92901611328125,1.973876953125,-4.14215087890625,-0.844879150390625,1,1.0,1.0,1.0,1.0,25.00
2024-03-13 11:10:20.138,,,,,,,,,,,,,,,,,,,,,,,,,,,,,,,,,,,,,,/muse/elements/blink
2024-03-13 11:10:20.953,0.026017876,1.0069965,0.3007208,-0.23042902,0.28414083,0.70522803,-0.3188244,0.10680063,0.45751607,0.50606227,0.040534113,0.61736214,0.88376546,0.3636073,0.47259143,0.7770845,0.6900591,-0.027497381,0.09726158,0.48953506,798.20514,807.0696,796.5934,810.696,594.3223,0.3670654296875,0.08856201171875,0.9261474609375,1.428070068359375,-3.656158447265625,-1.495361328125,1,1.0,1.0,1.0,1.0,25.00
2024-03-13 11:10:21.957,0.114216626,0.6827819,-0.010861988,0.5438899,0.37845892,0.33000913,-0.019757194,0.43206096,0.38327628,0.3970187,0.19893347,0.5609586,0.9168793,0.25516135,0.41920656,0.8290446,0.64803356,-0.0036575783,0.15352763,0.7097038,788.5348,808.2784,803.8461,786.1172,697.8755,0.36627197265625,0.08782958984375,0.9256591796875,1.30096435546875,-4.0972900390625,-1.218719482421875,1,1.0,1.0,1.0,1.0,25.00
2024-03-13 11:10:22.682,,,,,,,,,,,,,,,,,,,,,,,,,,,,,,,,,,,,,,/muse/elements/blink
2024-03-13 11:10:22.982,0.38427284,0.2578572,0.2099174,0.54102427,0.31076083,-0.09542918,-0.07453356,0.41266957,0.40079555,0.079654284,0.26126415,0.5267303,0.78371364,0.2635883,0.41372153,0.85177666,0.62255645,0.1292634,0.191956,0.6545002,815.12823,801.8315,797.8022,819.15753,727.6923,0.36553955078125,0.0853271484375,0.93206787109375,1.5252685546875,-3.446807861328125,-2.115936279296875,1,1.0,1.0,1.0,1.0,25.00
2024-03-13 11:10:24.007,0.56070346,0.7049963,0.6218678,0.3242035,0.23547678,0.3069919,-0.038884938,0.53192794,0.27292737,-0.0014818936,0.13194072,0.29805672,0.6570765,0.3251165,0.41091463,0.91927516,0.58987653,-0.008309329,0.058490723,0.60612917,792.96704,813.5165,791.75824,805.8608,743.00366,0.35821533203125,0.08538818359375,0.93463134765625,2.0037841796875,-3.96270751953125,-1.1962890625,1,1.0,1.0,1.0,1.0,25.00
2024-03-13 11:10:25.028,0.5755817,0.38838798,0.49804708,0.5589002,0.27356297,0.27812344,0.041396543,0.41102675,0.744826,0.2203723,0.25034016,0.71388483,0.95955765,0.33937058,0.47880602,0.7851444,0.6634134,0.037621412,0.17550892,0.75950253,807.47253,803.44324,786.1172,802.23444,596.7399,0.36322021484375,0.08953857421875,0.9300537109375,1.891632080078125,-3.63372802734375,-0.85235595703125,1,1.0,1.0,1.0,1.0,25.00
2024-03-13 11:10:25.287,,,,,,,,,,,,,,,,,,,,,,,,,,,,,,,,,,,,,,/muse/elements/blink
2024-03-13 11:10:26.052,0.21283695,0.7860857,1.2027065,0.30292627,0.24355055,0.5396148,1.1583071,0.2366362,0.29438236,0.5072415,0.9316797,0.4459673,0.9975674,0.33026603,0.39716923,0.8123062,0.53280294,0.10626447,0.1750258,0.7137069,805.05493,809.4872,786.9231,798.60803,699.4872,0.35931396484375,0.08587646484375,0.93206787109375,1.71966552734375,-3.865509033203125,-1.39068603515625,1,1.0,1.0,1.0,1.0,25.00
2024-03-13 11:10:26.929,,,,,,,,,,,,,,,,,,,,,,,,,,,,,,,,,,,,,,/muse/elements/blink
2024-03-13 11:10:27.064,1.0827541,0.61622673,1.0169139,0.1959043,0.79868954,0.4179638,1.0064752,0.14631747,0.70734376,0.42145315,0.8811791,0.33632058,0.64486486,0.21858872,0.3890579,0.8402432,0.6213833,0.16911092,0.22168738,0.72224873,844.1392,796.1905,791.75824,837.6923,779.2674,0.362060546875,0.09344482421875,0.9305419921875,1.772003173828125,-3.99261474609375,-0.994415283203125,1,1.0,1.0,1.0,1.0,25.00
2024-03-13 11:10:28.068,1.0827541,0.62746996,-0.12796548,0.1959043,0.79868954,0.054751273,-0.0133918645,0.14631747,0.70734376,0.019489566,0.12056548,0.33632058,0.64486486,0.2975668,0.36765066,0.8402432,0.6213833,0.10823686,0.081938244,0.72224873,834.87177,806.26373,800.6227,819.15753,726.4835,0.36065673828125,0.0870361328125,0.92803955078125,1.18133544921875,-3.715972900390625,-1.009368896484375,1,1.0,1.0,1.0,1.0,25.00
2024-03-13 11:10:28.502,,,,,,,,,,,,,,,,,,,,,,,,,,,,,,,,,,,,,,/muse/elements/blink
2024-03-13 11:10:29.093,1.0827541,0.72170174,-0.12796548,0.1959043,0.79868954,0.06267758,-0.0133918645,0.14631747,0.70734376,0.14326088,0.12056548,0.33632058,0.64486486,0.33017775,0.36765066,0.8402432,0.6213833,-0.015187301,0.081938244,0.72224873,761.9414,827.619,831.2454,772.4176,790.54944,0.3648681640625,0.0889892578125,0.9302978515625,1.801910400390625,-4.000091552734375,-0.321502685546875,1,1.0,1.0,1.0,1.0,25.00
2024-03-13 11:10:29.261,,,,,,,,,,,,,,,,,,,,,,,,,,,,,,,,,,,,,,/muse/elements/blink
2024-03-13 11:10:29.570,,,,,,,,,,,,,,,,,,,,,,,,,,,,,,,,,,,,,,/muse/elements/blink
2024-03-13 11:10:29.785,,,,,,,,,,,,,,,,,,,,,,,,,,,,,,,,,,,,,,/muse/elements/blink
2024-03-13 11:10:30.062,,,,,,,,,,,,,,,,,,,,,,,,,,,,,,,,,,,,,,/muse/elements/blink
2024-03-13 11:10:30.106,1.0827541,0.72170174,-0.12796548,0.1959043,0.79868954,0.06267758,-0.0133918645,0.14631747,0.70734376,0.14326088,0.12056548,0.33632058,0.64486486,0.33017775,0.36765066,0.8402432,0.6213833,-0.015187301,0.081938244,0.72224873,796.1905,759.12085,736.9597,803.0403,779.67035,0.36480712890625,0.092041015625,0.9306640625,1.487884521484375,-3.596343994140625,-0.695343017578125,1,2.0,1.0,1.0,2.0,25.00
2024-03-13 11:10:31.116,1.0827541,0.72170174,-0.12796548,0.1959043,0.79868954,0.06267758,-0.0133918645,0.14631747,0.70734376,0.14326088,0.12056548,0.33632058,0.64486486,0.33017775,0.36765066,0.8402432,0.6213833,-0.015187301,0.081938244,0.72224873,845.7509,786.52014,772.01465,835.6777,726.4835,0.3665771484375,0.08990478515625,0.93194580078125,1.801910400390625,-3.66363525390625,0.276641845703125,1,2.0,1.0,1.0,2.0,25.00
2024-03-13 11:10:31.220,,,,,,,,,,,,,,,,,,,,,,,,,,,,,,,,,,,,,,/muse/elements/blink
2024-03-13 11:10:31.633,,,,,,,,,,,,,,,,,,,,,,,,,,,,,,,,,,,,,,/muse/elements/blink
